Col.n° Rot(deg) Lin(mm) CHR(um)
1	0,000	80,116	1894,620
1	0,000	80,116	1894,519
1	0,000	80,165	1894,720
1	0,000	80,165	1894,418
1	0,000	80,215	1894,519
1	0,000	80,265	1894,418
1	0,000	80,265	1894,720
1	0,000	80,315	1894,318
1	0,000	80,366	1894,217
1	0,000	80,366	1894,318
1	0,000	80,416	1894,217
1	0,000	80,466	1894,116
1	0,000	80,466	1894,116
1	0,000	80,516	1894,116
1	0,000	80,566	1894,016
1	0,000	80,566	1894,116
1	0,000	80,616	1894,116
1	0,000	80,666	1893,814
1	0,000	80,666	1893,814
1	0,000	80,716	1893,915
1	0,000	80,766	1894,016
1	0,000	80,766	1893,915
1	0,000	80,817	1893,814
1	0,000	80,867	1893,814
1	0,000	80,867	1893,713
1	0,000	80,918	1894,016
1	0,000	80,968	1893,713
1	0,000	80,968	1893,814
1	0,000	81,019	1893,713
1	0,000	81,019	1893,713
1	0,000	81,069	1893,713
1	0,000	81,120	1893,713
1	0,000	81,120	1893,613
1	0,000	81,170	1893,613
1	0,000	81,220	1893,613
1	0,000	81,220	1893,512
1	0,000	81,271	1893,512
1	0,000	81,320	1893,311
1	0,000	81,320	1893,411
1	0,000	81,371	1893,512
1	0,000	81,421	1893,411
1	0,000	81,421	1893,411
1	0,000	81,471	1893,311
1	0,000	81,521	1893,311
1	0,000	81,521	1893,411
1	0,000	81,571	1893,311
1	0,000	81,621	1893,311
1	0,000	81,621	1893,311
1	0,000	81,671	1893,210
1	0,000	81,721	1893,411
1	0,000	81,721	1893,008
1	0,000	81,771	1893,210
1	0,000	81,822	1893,008
1	0,000	81,822	1893,008
1	0,000	81,872	1892,908
1	0,000	81,922	1893,008
1	0,000	81,922	1893,109
1	0,000	81,972	1893,008
1	0,000	82,023	1892,706
1	0,000	82,023	1892,807
1	0,000	82,073	1892,908
1	0,000	82,122	1892,908
1	0,000	82,122	1892,807
1	0,000	82,173	1892,807
1	0,000	82,222	1892,807
1	0,000	82,222	1892,706
1	0,000	82,273	1892,807
1	0,000	82,323	1892,606
1	0,000	82,323	1892,606
1	0,000	82,373	1892,505
1	0,000	82,423	1892,908
1	0,000	82,423	1892,807
1	0,000	82,474	1892,807
1	0,000	82,524	1892,807
1	0,000	82,524	1892,807
1	0,000	82,574	1892,606
1	0,000	82,625	1892,706
1	0,000	82,625	1892,807
1	0,000	82,675	1892,606
1	0,000	82,725	1892,706
1	0,000	82,725	1892,505
1	0,000	82,774	1892,706
1	0,000	82,825	1892,706
1	0,000	82,825	1892,807
1	0,000	82,875	1892,606
1	0,000	82,925	1892,505
1	0,000	82,925	1892,606
1	0,000	82,975	1892,908
1	0,000	83,025	1892,706
1	0,000	83,025	1892,606
1	0,000	83,075	1892,706
1	0,000	83,126	1892,505
1	0,000	83,126	1892,505
1	0,000	83,176	1892,303
1	0,000	83,226	1892,606
1	0,000	83,226	1892,505
1	0,000	83,276	1892,404
1	0,000	83,326	1892,404
1	0,000	83,326	1892,505
1	0,000	83,377	1892,404
1	0,000	83,426	1892,505
1	0,000	83,426	1892,303
1	0,000	83,477	1892,404
1	0,000	83,527	1892,404
1	0,000	83,527	1892,404
1	0,000	83,576	1892,404
1	0,000	83,627	1892,404
1	0,000	83,627	1892,001
1	0,000	83,677	1892,404
1	0,000	83,728	1892,706
1	0,000	83,728	1892,404
1	0,000	83,778	1892,303
1	0,000	83,828	1892,404
1	0,000	83,828	1892,404
1	0,000	83,878	1892,404
1	0,000	83,928	1892,404
1	0,000	83,928	1892,303
1	0,000	83,978	1892,303
1	0,000	84,029	1892,303
1	0,000	84,029	1892,404
1	0,000	84,079	1892,404
1	0,000	84,129	1892,303
1	0,000	84,129	1892,303
1	0,000	84,179	1892,404
1	0,000	84,229	1892,303
1	0,000	84,229	1892,606
1	0,000	84,279	1892,404
1	0,000	84,329	1892,203
1	0,000	84,329	1892,303
1	0,000	84,380	1892,404
1	0,000	84,430	1892,404
1	0,000	84,430	1892,404
1	0,000	84,480	1892,505
1	0,000	84,530	1892,303
1	0,000	84,530	1892,303
1	0,000	84,580	1892,404
1	0,000	84,629	1892,303
1	0,000	84,629	1892,303
1	0,000	84,680	1892,404
1	0,000	84,730	1892,303
1	0,000	84,730	1892,404
1	0,000	84,780	1892,404
1	0,000	84,830	1892,404
1	0,000	84,830	1892,505
1	0,000	84,880	1892,505
1	0,000	84,931	1892,505
1	0,000	84,931	1892,606
1	0,000	84,980	1892,505
1	0,000	85,031	1892,505
1	0,000	85,031	1892,706
1	0,000	85,081	1892,606
1	0,000	85,131	1892,505
1	0,000	85,131	1892,505
1	0,000	85,181	1892,505
1	0,000	85,231	1892,606
1	0,000	85,231	1892,404
1	0,000	85,281	1892,505
1	0,000	85,331	1892,505
1	0,000	85,331	1892,505
1	0,000	85,381	1892,505
1	0,000	85,432	1892,404
1	0,000	85,432	1892,706
1	0,000	85,482	1892,706
1	0,000	85,532	1892,706
1	0,000	85,532	1892,606
1	0,000	85,582	1892,706
1	0,000	85,632	1892,706
1	0,000	85,632	1892,706
1	0,000	85,682	1892,606
1	0,000	85,682	1892,606
1	0,000	85,733	1892,606
1	0,000	85,783	1892,807
1	0,000	85,833	1892,807
1	0,000	85,833	1892,706
1	0,000	85,883	1892,807
1	0,000	85,883	1892,807
1	0,000	85,932	1892,908
1	0,000	85,982	1892,908
1	0,000	85,982	1892,908
1	0,000	86,032	1892,908
1	0,000	86,083	1892,908
1	0,000	86,083	1893,008
1	0,000	86,133	1893,008
1	0,000	86,184	1892,908
1	0,000	86,184	1892,908
1	0,000	86,234	1893,008
1	0,000	86,283	1893,008
1	0,000	86,283	1893,008
1	0,000	86,334	1892,908
1	0,000	86,384	1892,908
1	0,000	86,384	1893,008
1	0,000	86,434	1892,908
1	0,000	86,483	1893,109
1	0,000	86,483	1893,008
1	0,000	86,534	1893,109
1	0,000	86,584	1893,109
1	0,000	86,584	1893,008
1	0,000	86,634	1893,008
1	0,000	86,684	1893,008
1	0,000	86,684	1893,109
1	0,000	86,735	1893,008
1	0,000	86,785	1893,311
1	0,000	86,785	1893,210
1	0,000	86,834	1893,311
1	0,000	86,885	1893,311
1	0,000	86,885	1893,210
1	0,000	86,935	1893,411
1	0,000	86,985	1893,411
1	0,000	86,985	1893,411
1	0,000	87,035	1893,512
1	0,000	87,085	1893,411
1	0,000	87,085	1893,613
1	0,000	87,136	1893,613
1	0,000	87,186	1893,613
1	0,000	87,186	1893,613
1	0,000	87,236	1893,512
1	0,000	87,286	1893,613
1	0,000	87,286	1893,713
1	0,000	87,336	1893,814
1	0,000	87,386	1893,814
1	0,000	87,386	1893,613
1	0,000	87,436	1893,814
1	0,000	87,486	1893,713
1	0,000	87,486	1893,713
1	0,000	87,536	1893,814
1	0,000	87,586	1893,915
1	0,000	87,586	1894,016
1	0,000	87,636	1893,915
1	0,000	87,686	1894,116
1	0,000	87,686	1894,217
1	0,000	87,736	1894,116
1	0,000	87,786	1894,016
1	0,000	87,786	1894,116
1	0,000	87,836	1894,217
1	0,000	87,886	1894,217
1	0,000	87,886	1894,217
1	0,000	87,935	1894,217
1	0,000	87,986	1894,318
1	0,000	87,986	1894,418
1	0,000	88,036	1894,418
1	0,000	88,087	1894,418
1	0,000	88,087	1894,519
1	0,000	88,137	1894,620
1	0,000	88,186	1894,720
1	0,000	88,186	1894,821
1	0,000	88,237	1894,922
1	0,000	88,286	1894,922
1	0,000	88,286	1894,922
1	0,000	88,336	1894,821
1	0,000	88,387	1894,922
1	0,000	88,387	1895,023
1	0,000	88,437	1894,922
1	0,000	88,487	1895,123
1	0,000	88,487	1895,123
1	0,000	88,536	1895,224
1	0,000	88,587	1895,123
1	0,000	88,587	1895,224
1	0,000	88,637	1895,224
1	0,000	88,687	1895,325
1	0,000	88,687	1895,425
1	0,000	88,737	1895,526
1	0,000	88,787	1895,526
1	0,000	88,787	1895,627
1	0,000	88,838	1895,627
1	0,000	88,888	1895,526
1	0,000	88,888	1895,627
1	0,000	88,938	1895,728
1	0,000	88,988	1895,828
1	0,000	88,988	1895,728
1	0,000	89,039	1895,828
1	0,000	89,088	1895,828
1	0,000	89,088	1895,929
1	0,000	89,139	1895,929
1	0,000	89,189	1896,030
1	0,000	89,189	1896,130
1	0,000	89,240	1896,130
1	0,000	89,290	1896,130
1	0,000	89,290	1896,332
1	0,000	89,340	1896,332
1	0,000	89,391	1896,332
1	0,000	89,391	1896,533
1	0,000	89,440	1896,432
1	0,000	89,490	1896,735
1	0,000	89,490	1896,634
1	0,000	89,540	1896,634
1	0,000	89,591	1896,634
1	0,000	89,591	1896,735
1	0,000	89,641	1896,735
1	0,000	89,690	1896,835
1	0,000	89,690	1896,936
1	0,000	89,741	1896,936
1	0,000	89,791	1896,936
1	0,000	89,791	1897,037
1	0,000	89,841	1897,037
1	0,000	89,891	1897,238
1	0,000	89,891	1897,339
1	0,000	89,942	1897,339
1	0,000	89,992	1897,440
1	0,000	89,992	1897,440
1	0,000	90,042	1897,540
1	0,000	90,093	1897,037
1	0,000	90,093	1897,842
1	0,000	90,143	1897,842
1	0,000	90,193	1898,044
1	0,000	90,193	1898,044
1	0,000	90,243	1897,943
1	0,000	90,293	1897,943
1	0,000	90,293	1898,044
1	0,000	90,344	1897,943
1	0,000	90,394	1898,044
1	0,000	90,394	1898,447
1	0,000	90,444	1898,245
1	0,000	90,493	1898,245
1	0,000	90,493	1898,447
1	0,000	90,543	1898,547
1	0,000	90,593	1898,648
1	0,000	90,593	1898,547
1	0,000	90,643	1898,749
1	0,000	90,693	1898,749
1	0,000	90,693	1898,849
1	0,000	90,744	1898,950
1	0,000	90,794	1899,051
1	0,000	90,794	1899,152
1	0,000	90,845	1899,152
1	0,000	90,896	1899,152
1	0,000	90,896	1899,252
1	0,000	90,945	1899,252
1	0,000	90,995	1899,353
1	0,000	90,995	1899,454
1	0,000	91,045	1899,454
1	0,000	91,095	1899,554
1	0,000	91,095	1899,554
1	0,000	91,145	1899,655
1	0,000	91,196	1899,756
1	0,000	91,196	1899,857
1	0,000	91,246	1899,957
1	0,000	91,296	1899,957
1	0,000	91,296	1900,058
1	0,000	91,346	1900,159
1	0,000	91,396	1900,259
1	0,000	91,396	1900,259
1	0,000	91,446	1900,360
1	0,000	91,496	1900,461
1	0,000	91,496	1900,562
1	0,000	91,546	1900,562
1	0,000	91,546	1900,662
1	0,000	91,597	1900,662
1	0,000	91,647	1900,864
1	0,000	91,647	1900,964
1	0,000	91,697	1900,964
1	0,000	91,746	1900,964
1	0,000	91,746	1901,065
1	0,000	91,797	1901,065
1	0,000	91,847	1901,266
1	0,000	91,847	1901,367
1	0,000	91,897	1901,367
1	0,000	91,947	1901,569
1	0,000	91,947	1901,569
1	0,000	91,997	1901,669
1	0,000	92,047	1901,669
1	0,000	92,047	1901,770
1	0,000	92,098	1901,871
1	0,000	92,148	1901,971
1	0,000	92,148	1902,072
1	0,000	92,197	1902,072
1	0,000	92,248	1902,173
1	0,000	92,248	1902,274
1	0,000	92,298	1902,475
1	0,000	92,348	1902,475
1	0,000	92,348	1902,576
1	0,000	92,399	1902,676
1	0,000	92,449	1902,777
1	0,000	92,449	1902,878
1	0,000	92,499	1902,878
1	0,000	92,549	1903,180
1	0,000	92,549	1903,180
1	0,000	92,599	1903,281
1	0,000	92,649	1903,381
1	0,000	92,649	1903,583
1	0,000	92,699	1903,583
1	0,000	92,749	1903,784
1	0,000	92,749	1903,784
1	0,000	92,799	1903,986
1	0,000	92,849	1903,986
1	0,000	92,849	1904,086
1	0,000	92,899	1904,187
1	0,000	92,950	1904,187
1	0,000	92,950	1904,388
1	0,000	92,999	1904,489
1	0,000	93,050	1904,590
1	0,000	93,050	1904,691
1	0,000	93,100	1904,791
1	0,000	93,150	1904,993
1	0,000	93,150	1904,993
1	0,000	93,200	1905,093
1	0,000	93,250	1905,194
1	0,000	93,250	1905,295
1	0,000	93,301	1905,396
1	0,000	93,351	1905,396
1	0,000	93,351	1905,597
1	0,000	93,401	1905,798
1	0,000	93,451	1905,798
1	0,000	93,451	1905,899
1	0,000	93,501	1906,000
1	0,000	93,552	1906,000
1	0,000	93,552	1906,201
1	0,000	93,602	1906,302
1	0,000	93,652	1906,302
1	0,000	93,652	1906,403
1	0,000	93,702	1906,503
1	0,000	93,753	1906,705
1	0,000	93,753	1906,805
1	0,000	93,802	1906,906
1	0,000	93,852	1906,906
1	0,000	93,852	1907,108
1	0,000	93,903	1907,208
1	0,000	93,953	1907,410
1	0,000	93,953	1907,410
1	0,000	94,003	1907,611
1	0,000	94,053	1907,812
1	0,000	94,053	1907,812
1	0,000	94,103	1907,913
1	0,000	94,153	1908,115
1	0,000	94,153	1908,215
1	0,000	94,204	1908,316
1	0,000	94,254	1908,417
1	0,000	94,254	1908,618
1	0,000	94,304	1908,618
1	0,000	94,354	1908,719
1	0,000	94,354	1908,820
1	0,000	94,404	1908,920
1	0,000	94,454	1909,021
1	0,000	94,454	1909,122
1	0,000	94,504	1909,222
1	0,000	94,554	1909,424
1	0,000	94,554	1909,424
1	0,000	94,604	1909,625
1	0,000	94,655	1909,726
1	0,000	94,655	1909,827
1	0,000	94,705	1910,028
1	0,000	94,755	1910,129
1	0,000	94,755	1910,330
1	0,000	94,804	1910,330
1	0,000	94,855	1910,532
1	0,000	94,855	1910,532
1	0,000	94,905	1910,733
1	0,000	94,955	1910,834
1	0,000	94,955	1911,035
1	0,000	95,005	1911,035
1	0,000	95,055	1911,337
1	0,000	95,055	1911,438
1	0,000	95,105	1911,438
1	0,000	95,156	1911,639
1	0,000	95,156	1911,740
1	0,000	95,206	1911,841
1	0,000	95,256	1912,042
1	0,000	95,256	1912,143
1	0,000	95,306	1912,244
1	0,000	95,356	1912,344
1	0,000	95,356	1912,546
1	0,000	95,406	1912,646
1	0,000	95,456	1912,848
1	0,000	95,456	1912,848
1	0,000	95,506	1913,049
1	0,000	95,557	1913,251
1	0,000	95,557	1913,452
1	0,000	95,607	1913,654
1	0,000	95,657	1913,754
1	0,000	95,657	1913,754
1	0,000	95,707	1914,056
1	0,000	95,757	1914,056
1	0,000	95,757	1914,157
1	0,000	95,807	1914,258
1	0,000	95,857	1914,459
1	0,000	95,857	1914,661
1	0,000	95,908	1914,761
1	0,000	95,958	1914,862
1	0,000	95,958	1914,963
1	0,000	96,008	1915,366
1	0,000	96,057	1915,466
1	0,000	96,057	1915,466
1	0,000	96,107	1915,567
1	0,000	96,158	1915,668
1	0,000	96,158	1915,869
1	0,000	96,208	1915,869
1	0,000	96,258	1916,071
1	0,000	96,258	1916,171
1	0,000	96,308	1916,272
1	0,000	96,358	1916,373
1	0,000	96,358	1916,574
1	0,000	96,408	1916,675
1	0,000	96,458	1916,776
1	0,000	96,458	1916,977
1	0,000	96,508	1917,078
1	0,000	96,558	1917,178
1	0,000	96,558	1917,581
1	0,000	96,609	1917,581
1	0,000	96,659	1917,783
1	0,000	96,659	1917,883
1	0,000	96,709	1918,085
1	0,000	96,760	1918,185
1	0,000	96,760	1918,387
1	0,000	96,810	1918,488
1	0,000	96,859	1918,689
1	0,000	96,859	1918,790
1	0,000	96,910	1918,890
1	0,000	96,959	1919,092
1	0,000	96,959	1919,193
1	0,000	97,009	1919,293
1	0,000	97,060	1919,495
1	0,000	97,060	1919,595
1	0,000	97,110	1919,696
1	0,000	97,159	1919,897
1	0,000	97,159	1919,998
1	0,000	97,210	1920,200
1	0,000	97,210	1920,300
1	0,000	97,260	1920,502
1	0,000	97,310	1920,703
1	0,000	97,360	1920,804
1	0,000	97,360	1920,905
1	0,000	97,410	1921,307
1	0,000	97,460	1921,307
1	0,000	97,460	1921,408
1	0,000	97,510	1921,609
1	0,000	97,510	1921,811
1	0,000	97,560	1922,012
1	0,000	97,610	1922,113
1	0,000	97,610	1922,314
1	0,000	97,660	1922,415
1	0,000	97,711	1922,717
1	0,000	97,711	1922,818
1	0,000	97,761	1922,919
1	0,000	97,810	1923,120
1	0,000	97,810	1923,322
1	0,000	97,861	1923,523
1	0,000	97,911	1923,724
1	0,000	97,911	1923,825
1	0,000	97,961	1924,026
1	0,000	98,011	1924,127
1	0,000	98,011	1924,329
1	0,000	98,062	1924,429
1	0,000	98,112	1924,530
1	0,000	98,112	1924,731
1	0,000	98,162	1924,933
1	0,000	98,212	1925,034
1	0,000	98,212	1925,336
1	0,000	98,262	1925,537
1	0,000	98,312	1925,638
1	0,000	98,312	1925,739
1	0,000	98,363	1926,041
1	0,000	98,413	1926,242
1	0,000	98,413	1926,343
1	0,000	98,463	1926,544
1	0,000	98,514	1926,746
1	0,000	98,514	1926,947
1	0,000	98,564	1927,048
1	0,000	98,614	1927,350
1	0,000	98,614	1927,451
1	0,000	98,665	1927,551
1	0,000	98,714	1927,853
1	0,000	98,714	1927,954
1	0,000	98,765	1928,156
1	0,000	98,815	1928,357
1	0,000	98,815	1928,558
1	0,000	98,866	1928,659
1	0,000	98,915	1928,961
1	0,000	98,915	1929,062
1	0,000	98,966	1929,263
1	0,000	99,016	1929,364
1	0,000	99,016	1929,565
1	0,000	99,066	1929,666
1	0,000	99,116	1929,767
1	0,000	99,116	1930,069
1	0,000	99,166	1930,371
1	0,000	99,216	1930,472
1	0,000	99,216	1930,774
1	0,000	99,267	1930,875
1	0,000	99,317	1931,076
1	0,000	99,317	1931,177
1	0,000	99,367	1931,378
1	0,000	99,418	1931,580
1	0,000	99,418	1931,680
1	0,000	99,467	1931,882
1	0,000	99,518	1932,083
1	0,000	99,518	1932,184
1	0,000	99,568	1932,285
1	0,000	99,618	1932,486
1	0,000	99,618	1932,788
1	0,000	99,668	1932,990
1	0,000	99,719	1933,191
1	0,000	99,719	1933,493
1	0,000	99,768	1933,594
1	0,000	99,819	1933,694
1	0,000	99,819	1933,896
1	0,000	99,869	1934,097
1	0,000	99,919	1934,198
1	0,000	99,919	1934,399
1	0,000	99,969	1934,702
1	0,000	100,019	1934,903
1	0,000	100,019	1935,004
1	0,000	100,070	1935,205
1	0,000	100,120	1935,406
1	0,000	100,120	1935,709
1	0,000	100,169	1935,910
1	0,000	100,220	1936,011
1	0,000	100,220	1936,212
1	0,000	100,270	1936,414
1	0,000	100,320	1936,514
1	0,000	100,320	1936,816
1	0,000	100,371	1937,018
1	0,000	100,420	1937,119
1	0,000	100,420	1937,320
1	0,000	100,471	1937,521
1	0,000	100,521	1937,823
1	0,000	100,521	1938,025
1	0,000	100,570	1938,327
1	0,000	100,621	1938,528
1	0,000	100,621	1938,730
1	0,000	100,671	1938,931
1	0,000	100,721	1939,233
1	0,000	100,721	1939,334
1	0,000	100,771	1939,536
1	0,000	100,822	1939,737
1	0,000	100,822	1940,039
1	0,000	100,872	1940,140
1	0,000	100,922	1940,341
1	0,000	100,922	1940,543
1	0,000	100,972	1940,744
1	0,000	101,022	1940,945
1	0,000	101,022	1941,147
1	0,000	101,072	1941,348
1	0,000	101,122	1941,650
1	0,000	101,122	1941,852
1	0,000	101,172	1942,053
1	0,000	101,222	1942,255
1	0,000	101,222	1942,456
1	0,000	101,273	1942,657
1	0,000	101,323	1942,859
1	0,000	101,323	1943,060
1	0,000	101,372	1943,262
1	0,000	101,423	1943,463
1	0,000	101,423	1943,765
1	0,000	101,473	1943,866
1	0,000	101,523	1944,067
1	0,000	101,523	1944,269
1	0,000	101,573	1944,571
1	0,000	101,624	1944,772
1	0,000	101,624	1944,974
1	0,000	101,674	1945,276
1	0,000	101,724	1945,477
1	0,000	101,724	1945,679
1	0,000	101,775	1945,880
1	0,000	101,824	1946,182
1	0,000	101,824	1946,283
1	0,000	101,875	1946,585
1	0,000	101,875	1946,686
1	0,000	101,925	1946,988
1	0,000	101,975	1947,290
1	0,000	101,975	1947,491
1	0,000	102,025	1947,693
1	0,000	102,075	1947,894
1	0,000	102,075	1948,096
1	0,000	102,125	1948,297
1	0,000	102,176	1948,499
1	0,000	102,176	1948,700
1	0,000	102,225	1949,002
1	0,000	102,276	1949,203
1	0,000	102,276	1949,405
1	0,000	102,326	1949,707
1	0,000	102,376	1949,908
1	0,000	102,376	1950,110
1	0,000	102,426	1950,412
1	0,000	102,476	1950,513
1	0,000	102,476	1950,714
1	0,000	102,526	1951,016
1	0,000	102,576	1951,318
1	0,000	102,576	1951,419
1	0,000	102,625	1951,620
1	0,000	102,676	1951,822
1	0,000	102,676	1952,124
1	0,000	102,726	1952,225
1	0,000	102,776	1952,426
1	0,000	102,776	1952,728
1	0,000	102,826	1952,930
1	0,000	102,876	1953,232
1	0,000	102,876	1953,433
1	0,000	102,926	1953,635
1	0,000	102,977	1953,836
1	0,000	102,977	1953,937
1	0,000	103,027	1954,239
1	0,000	103,077	1954,440
1	0,000	103,077	1954,742
1	0,000	103,127	1954,944
1	0,000	103,178	1955,246
1	0,000	103,178	1955,347
1	0,000	103,228	1955,649
1	0,000	103,277	1955,951
1	0,000	103,277	1956,052
1	0,000	103,327	1956,454
1	0,000	103,377	1956,555
1	0,000	103,377	1956,857
1	0,000	103,428	1957,059
1	0,000	103,478	1957,260
1	0,000	103,478	1957,562
1	0,000	103,528	1957,764
1	0,000	103,578	1957,965
1	0,000	103,578	1958,368
1	0,000	103,628	1958,569
1	0,000	103,678	1958,670
1	0,000	103,678	1958,972
1	0,000	103,728	1959,274
1	0,000	103,779	1959,476
1	0,000	103,779	1959,677
1	0,000	103,828	1959,979
1	0,000	103,879	1960,181
1	0,000	103,879	1960,382
1	0,000	103,928	1960,684
1	0,000	103,979	1960,986
1	0,000	103,979	1961,288
1	0,000	104,029	1961,490
1	0,000	104,078	1961,691
1	0,000	104,078	1961,993
1	0,000	104,128	1962,195
1	0,000	104,179	1962,497
1	0,000	104,179	1962,698
1	0,000	104,229	1963,101
1	0,000	104,280	1963,303
1	0,000	104,280	1963,504
1	0,000	104,330	1963,806
1	0,000	104,380	1964,108
1	0,000	104,380	1964,410
1	0,000	104,430	1964,511
1	0,000	104,480	1964,914
1	0,000	104,480	1965,216
1	0,000	104,530	1965,417
1	0,000	104,580	1965,518
1	0,000	104,580	1965,820
1	0,000	104,631	1965,820
1	0,000	104,681	1966,324
1	0,000	104,681	1966,525
1	0,000	104,732	1966,928
1	0,000	104,781	1967,130
1	0,000	104,781	1967,432
1	0,000	104,832	1967,633
1	0,000	104,882	1967,935
1	0,000	104,882	1968,137
1	0,000	104,932	1968,439
1	0,000	104,983	1968,741
1	0,000	104,983	1968,942
1	0,000	105,033	1969,244
1	0,000	105,083	1969,547
1	0,000	105,083	1969,748
1	0,000	105,133	1970,050
1	0,000	105,183	1970,352
1	0,000	105,183	1970,654
1	0,000	105,234	1970,856
1	0,000	105,284	1971,158
1	0,000	105,284	1971,460
1	0,000	105,334	1971,661
1	0,000	105,384	1971,964
1	0,000	105,384	1972,165
1	0,000	105,435	1972,467
1	0,000	105,484	1972,668
1	0,000	105,484	1973,071
1	0,000	105,535	1973,273
1	0,000	105,585	1973,575
1	0,000	105,585	1973,877
1	0,000	105,635	1974,078
1	0,000	105,685	1974,380
1	0,000	105,685	1974,582
1	0,000	105,736	1974,884
1	0,000	105,785	1975,085
1	0,000	105,785	1975,388
1	0,000	105,835	1976,093
1	0,000	105,886	1976,193
1	0,000	105,886	1976,193
1	0,000	105,937	1976,495
1	0,000	105,987	1976,797
1	0,000	105,987	1977,100
1	0,000	106,037	1977,301
1	0,000	106,087	1977,704
1	0,000	106,087	1977,805
1	0,000	106,137	1978,107
1	0,000	106,187	1978,409
1	0,000	106,187	1978,812
1	0,000	106,237	1979,013
1	0,000	106,288	1979,416
1	0,000	106,288	1979,517
1	0,000	106,337	1979,919
1	0,000	106,388	1980,121
1	0,000	106,388	1980,423
1	0,000	106,437	1980,725
1	0,000	106,487	1981,027
1	0,000	106,487	1981,430
1	0,000	106,537	1981,631
1	0,000	106,537	1981,934
1	0,000	106,588	1982,236
1	0,000	106,638	1982,538
1	0,000	106,687	1982,840
1	0,000	106,687	1983,142
1	0,000	106,737	1983,545
1	0,000	106,787	1983,847
1	0,000	106,787	1984,048
1	0,000	106,838	1984,351
1	0,000	106,888	1984,653
1	0,000	106,888	1984,955
1	0,000	106,939	1985,257
1	0,000	106,939	1985,559
1	0,000	106,989	1985,861
1	0,000	107,039	1986,163
1	0,000	107,039	1986,465
1	0,000	107,089	1986,768
1	0,000	107,140	1986,969
1	0,000	107,140	1987,573
1	0,000	107,190	1987,674
1	0,000	107,240	1988,681
1	0,000	107,240	1988,480
1	0,000	107,290	1988,782
1	0,000	107,340	1988,882
1	0,000	107,340	1989,386
1	0,000	107,390	1989,487
1	0,000	107,440	1989,789
1	0,000	107,440	1990,091
1	0,000	107,491	1990,393
1	0,000	107,541	1990,594
1	0,000	107,541	1990,997
1	0,000	107,590	1991,299
1	0,000	107,641	1991,501
1	0,000	107,641	1991,904
1	0,000	107,691	1992,206
1	0,000	107,741	1992,407
1	0,000	107,741	1992,609
1	0,000	107,791	1992,911
1	0,000	107,841	1993,314
1	0,000	107,841	1993,515
1	0,000	107,892	1993,918
1	0,000	107,942	1994,321
1	0,000	107,942	1994,724
1	0,000	107,992	1995,026
1	0,000	108,042	1995,328
1	0,000	108,042	1995,630
1	0,000	108,092	1995,932
1	0,000	108,143	1996,335
1	0,000	108,143	1996,637
1	0,000	108,193	1996,838
1	0,000	108,243	1997,241
1	0,000	108,243	1997,644
1	0,000	108,294	1997,845
1	0,000	108,344	1998,148
1	0,000	108,344	1998,550
1	0,000	108,395	1998,853
1	0,000	108,444	1999,155
1	0,000	108,444	1999,557
1	0,000	108,494	1999,759
1	0,000	108,545	2000,162
1	0,000	108,545	2000,766
1	0,000	108,595	2000,766
1	0,000	108,645	2001,068
1	0,000	108,645	2001,572
1	0,000	108,695	2001,672
1	0,000	108,745	2001,974
1	0,000	108,745	2002,377
1	0,000	108,795	2002,679
1	0,000	108,845	2002,982
1	0,000	108,845	2003,284
1	0,000	108,895	2003,787
1	0,000	108,945	2004,291
1	0,000	108,945	2004,291
1	0,000	108,996	2004,593
1	0,000	109,046	2004,895
1	0,000	109,046	2005,197
1	0,000	109,096	2005,600
1	0,000	109,146	2005,902
1	0,000	109,146	2006,204
1	0,000	109,197	2006,607
1	0,000	109,247	2007,010
1	0,000	109,247	2007,312
1	0,000	109,296	2007,715
1	0,000	109,347	2008,118
1	0,000	109,347	2008,319
1	0,000	109,397	2008,722
1	0,000	109,448	2009,024
1	0,000	109,448	2009,427
1	0,000	109,499	2009,628
1	0,000	109,549	2010,132
1	0,000	109,549	2010,434
1	0,000	109,600	2010,736
1	0,000	109,649	2011,038
1	0,000	109,649	2011,441
1	0,000	109,699	2011,743
1	0,000	109,749	2012,146
1	0,000	109,749	2012,448
1	0,000	109,800	2012,750
1	0,000	109,851	2013,153
1	0,000	109,851	2013,455
1	0,000	109,900	2013,757
1	0,000	109,950	2014,160
1	0,000	109,950	2014,462
1	0,000	110,000	2014,865
1	0,000	110,051	2015,167
1	0,000	110,051	2015,469
1	0,000	110,101	2015,771
1	0,000	110,151	2016,174
1	0,000	110,151	2016,577
1	0,000	110,202	2016,879
1	0,000	110,252	2017,282
1	0,000	110,252	2017,584
1	0,000	110,302	2017,886
1	0,000	110,352	2018,289
1	0,000	110,352	2018,591
1	0,000	110,403	2018,994
1	0,000	110,452	2019,296
1	0,000	110,452	2019,699
1	0,000	110,503	2020,001
1	0,000	110,553	2020,404
1	0,000	110,553	2020,706
1	0,000	110,603	2021,109
1	0,000	110,653	2021,411
1	0,000	110,653	2021,814
1	0,000	110,703	2022,116
1	0,000	110,753	2022,519
1	0,000	110,753	2022,720
1	0,000	110,804	2023,022
1	0,000	110,804	2023,425
1	0,000	110,854	2023,727
1	0,000	110,904	2024,030
1	0,000	110,904	2024,332
1	0,000	110,954	2024,734
1	0,000	111,005	2025,037
1	0,000	111,005	2025,439
1	0,000	111,055	2025,742
1	0,000	111,105	2026,144
1	0,000	111,105	2026,447
1	0,000	111,155	2026,950
1	0,000	111,205	2027,151
1	0,000	111,205	2027,554
1	0,000	111,256	2027,856
1	0,000	111,306	2028,259
1	0,000	111,306	2028,561
1	0,000	111,356	2028,964
1	0,000	111,407	2029,266
1	0,000	111,407	2029,669
1	0,000	111,457	2029,971
1	0,000	111,506	2030,374
1	0,000	111,506	2030,777
1	0,000	111,557	2031,079
1	0,000	111,606	2031,482
1	0,000	111,606	2031,885
1	0,000	111,657	2032,288
1	0,000	111,707	2032,791
1	0,000	111,707	2033,093
1	0,000	111,757	2033,496
1	0,000	111,806	2033,899
1	0,000	111,806	2034,201
1	0,000	111,857	2034,604
1	0,000	111,907	2035,007
1	0,000	111,907	2035,309
1	0,000	111,958	2035,611
1	0,000	112,007	2036,014
1	0,000	112,007	2036,215
1	0,000	112,058	2036,618
1	0,000	112,108	2036,920
1	0,000	112,108	2037,222
1	0,000	112,159	2037,625
1	0,000	112,209	2037,927
1	0,000	112,209	2038,330
1	0,000	112,259	2038,632
1	0,000	112,309	2038,934
1	0,000	112,309	2039,337
1	0,000	112,359	2039,740
1	0,000	112,409	2040,143
1	0,000	112,409	2040,445
1	0,000	112,459	2040,848
1	0,000	112,509	2041,351
1	0,000	112,509	2041,653
1	0,000	112,560	2041,956
1	0,000	112,610	2042,358
1	0,000	112,610	2042,761
1	0,000	112,659	2043,164
1	0,000	112,709	2043,567
1	0,000	112,709	2043,970
1	0,000	112,759	2044,373
1	0,000	112,810	2044,775
1	0,000	112,810	2045,078
1	0,000	112,860	2045,581
1	0,000	112,910	2045,883
1	0,000	112,910	2046,387
1	0,000	112,960	2046,890
1	0,000	113,010	2047,192
1	0,000	113,010	2047,595
1	0,000	113,061	2047,897
1	0,000	113,111	2048,199
1	0,000	113,111	2048,602
1	0,000	113,161	2048,904
1	0,000	113,211	2049,207
1	0,000	113,211	2049,609
1	0,000	113,261	2049,911
1	0,000	113,311	2050,314
1	0,000	113,311	2050,717
1	0,000	113,361	2051,120
1	0,000	113,411	2051,422
1	0,000	113,411	2051,825
1	0,000	113,461	2052,228
1	0,000	113,511	2052,631
1	0,000	113,511	2053,033
1	0,000	113,562	2053,436
1	0,000	113,612	2053,839
1	0,000	113,612	2054,141
1	0,000	113,662	2054,645
1	0,000	113,713	2055,048
1	0,000	113,713	2055,350
1	0,000	113,763	2055,853
1	0,000	113,813	2056,155
1	0,000	113,813	2056,558
1	0,000	113,863	2056,961
1	0,000	113,913	2057,364
1	0,000	113,913	2057,767
1	0,000	113,963	2058,170
1	0,000	114,013	2058,472
1	0,000	114,013	2058,975
1	0,000	114,063	2059,378
1	0,000	114,113	2059,680
1	0,000	114,113	2060,184
1	0,000	114,163	2060,687
1	0,000	114,213	2060,989
1	0,000	114,213	2061,392
1	0,000	114,264	2061,795
1	0,000	114,315	2062,198
1	0,000	114,315	2062,500
1	0,000	114,365	2063,004
1	0,000	114,415	2063,306
1	0,000	114,415	2063,809
1	0,000	114,465	2064,212
1	0,000	114,516	2064,514
1	0,000	114,516	2065,018
1	0,000	114,566	2065,320
1	0,000	114,616	2065,823
1	0,000	114,616	2066,226
1	0,000	114,666	2066,730
1	0,000	114,716	2067,032
1	0,000	114,716	2067,535
1	0,000	114,767	2067,838
1	0,000	114,816	2068,341
1	0,000	114,816	2068,744
1	0,000	114,867	2069,247
1	0,000	114,917	2069,650
1	0,000	114,917	2070,154
1	0,000	114,967	2070,456
1	0,000	115,017	2070,859
1	0,000	115,017	2071,262
1	0,000	115,067	2071,664
1	0,000	115,117	2072,067
1	0,000	115,117	2072,470
1	0,000	115,167	2072,974
1	0,000	115,217	2073,276
1	0,000	115,217	2073,779
1	0,000	115,267	2074,283
1	0,000	115,317	2074,585
1	0,000	115,317	2074,988
1	0,000	115,367	2075,391
1	0,000	115,367	2075,793
1	0,000	115,418	2076,196
1	0,000	115,469	2076,498
1	0,000	115,469	2076,901
1	0,000	115,518	2077,405
1	0,000	115,569	2077,808
1	0,000	115,569	2078,412
1	0,000	115,619	2078,714
1	0,000	115,669	2079,218
1	0,000	115,669	2079,620
1	0,000	115,719	2080,023
1	0,000	115,769	2080,426
1	0,000	115,769	2080,930
1	0,000	115,819	2081,332
1	0,000	115,870	2081,735
1	0,000	115,870	2082,138
1	0,000	115,920	2082,642
1	0,000	115,970	2082,944
1	0,000	115,970	2083,246
1	0,000	116,021	2083,749
1	0,000	116,070	2084,152
1	0,000	116,070	2084,555
1	0,000	116,120	2084,958
1	0,000	116,170	2085,461
1	0,000	116,170	2085,764
1	0,000	116,221	2086,267
1	0,000	116,271	2086,670
1	0,000	116,271	2087,073
1	0,000	116,321	2087,476
1	0,000	116,371	2087,878
1	0,000	116,371	2088,382
1	0,000	116,421	2088,885
1	0,000	116,471	2089,288
1	0,000	116,471	2089,691
1	0,000	116,521	2089,993
1	0,000	116,571	2090,497
1	0,000	116,571	2091,000
1	0,000	116,621	2091,403
1	0,000	116,672	2091,806
1	0,000	116,672	2092,310
1	0,000	116,721	2092,712
1	0,000	116,772	2093,216
1	0,000	116,772	2093,619
1	0,000	116,822	2094,022
1	0,000	116,872	2094,424
1	0,000	116,872	2094,827
1	0,000	116,923	2095,230
1	0,000	116,973	2095,734
1	0,000	116,973	2096,136
1	0,000	117,023	2096,539
1	0,000	117,073	2096,942
1	0,000	117,073	2097,446
1	0,000	117,124	2097,949
1	0,000	117,174	2098,352
1	0,000	117,174	2098,755
1	0,000	117,224	2099,158
1	0,000	117,274	2099,661
1	0,000	117,274	2099,963
1	0,000	117,324	2100,366
1	0,000	117,374	2100,870
1	0,000	117,374	2101,273
1	0,000	117,424	2101,776
1	0,000	117,475	2102,179
1	0,000	117,475	2102,582
1	0,000	117,524	2103,085
1	0,000	117,575	2103,488
1	0,000	117,575	2104,193
1	0,000	117,625	2104,395
1	0,000	117,676	2104,797
1	0,000	117,676	2105,200
1	0,000	117,726	2105,704
1	0,000	117,775	2106,107
1	0,000	117,775	2106,509
1	0,000	117,825	2107,013
1	0,000	117,876	2107,416
1	0,000	117,876	2107,919
1	0,000	117,925	2108,423
1	0,000	117,976	2108,826
1	0,000	117,976	2109,329
1	0,000	118,026	2109,732
1	0,000	118,076	2110,135
1	0,000	118,076	2110,638
1	0,000	118,126	2111,142
1	0,000	118,176	2111,545
1	0,000	118,176	2111,948
1	0,000	118,226	2112,451
1	0,000	118,276	2112,955
1	0,000	118,276	2113,358
1	0,000	118,326	2113,861
1	0,000	118,376	2114,365
1	0,000	118,376	2114,667
1	0,000	118,427	2115,170
1	0,000	118,477	2115,674
1	0,000	118,477	2116,077
1	0,000	118,527	2116,580
1	0,000	118,577	2117,084
1	0,000	118,577	2117,487
1	0,000	118,627	2117,990
1	0,000	118,678	2118,292
1	0,000	118,678	2118,896
1	0,000	118,728	2119,400
1	0,000	118,778	2119,702
1	0,000	118,778	2120,306
1	0,000	118,828	2120,709
1	0,000	118,878	2121,112
1	0,000	118,878	2121,716
1	0,000	118,929	2122,018
1	0,000	118,979	2122,522
1	0,000	118,979	2123,026
1	0,000	119,029	2123,428
1	0,000	119,079	2124,033
1	0,000	119,079	2124,435
1	0,000	119,129	2124,939
1	0,000	119,179	2125,342
1	0,000	119,179	2125,745
1	0,000	119,229	2126,147
1	0,000	119,280	2126,752
1	0,000	119,280	2127,054
1	0,000	119,330	2127,658
1	0,000	119,381	2128,162
1	0,000	119,381	2128,665
1	0,000	119,431	2129,169
1	0,000	119,481	2129,572
1	0,000	119,481	2130,075
1	0,000	119,531	2130,579
1	0,000	119,582	2130,981
1	0,000	119,582	2131,485
1	0,000	119,632	2131,888
1	0,000	119,681	2132,391
1	0,000	119,681	2132,794
1	0,000	119,731	2133,298
1	0,000	119,781	2133,801
1	0,000	119,781	2134,204
1	0,000	119,832	2134,708
1	0,000	119,832	2135,110
1	0,000	119,882	2135,513
1	0,000	119,933	2136,017
1	0,000	119,933	2136,319
1	0,000	119,983	2136,722
1	0,000	120,033	2137,427
1	0,000	120,033	2137,930
1	0,000	120,083	2138,434
1	0,000	120,133	2138,937
1	0,000	120,133	2139,542
1	0,000	120,183	2140,045
1	0,000	120,233	2140,448
1	0,000	120,233	2141,052
1	0,000	120,283	2141,455
1	0,000	120,333	2141,858
1	0,000	120,383	2142,261
1	0,000	120,383	2142,664
1	0,000	120,434	2143,268
1	0,000	120,434	2143,671
1	0,000	120,484	2144,275
1	0,000	120,534	2144,678
1	0,000	120,534	2145,181
1	0,000	120,584	2145,584
1	0,000	120,633	2146,088
1	0,000	120,633	2146,591
1	0,000	120,683	2147,095
1	0,000	120,734	2147,598
1	0,000	120,734	2148,001
1	0,000	120,784	2148,505
1	0,000	120,834	2149,008
1	0,000	120,834	2149,411
1	0,000	120,884	2149,915
1	0,000	120,934	2150,418
1	0,000	120,934	2151,022
1	0,000	120,984	2151,425
1	0,000	121,035	2151,828
1	0,000	121,035	2152,432
1	0,000	121,085	2152,835
1	0,000	121,135	2153,339
1	0,000	121,135	2153,842
1	0,000	121,185	2154,346
1	0,000	121,236	2154,749
1	0,000	121,236	2155,353
1	0,000	121,285	2155,756
1	0,000	121,335	2156,259
1	0,000	121,335	2156,763
1	0,000	121,386	2157,266
1	0,000	121,436	2157,770
1	0,000	121,436	2158,173
1	0,000	121,486	2158,676
1	0,000	121,535	2159,280
1	0,000	121,535	2159,683
1	0,000	121,585	2160,187
1	0,000	121,635	2160,690
1	0,000	121,635	2161,194
1	0,000	121,685	2161,697
1	0,000	121,736	2162,302
1	0,000	121,736	2162,704
1	0,000	121,785	2163,208
1	0,000	121,835	2163,712
1	0,000	121,835	2164,114
1	0,000	121,886	2164,719
1	0,000	121,936	2165,222
1	0,000	121,936	2165,726
1	0,000	121,986	2166,229
1	0,000	122,036	2166,733
1	0,000	122,036	2167,236
1	0,000	122,087	2167,740
1	0,000	122,138	2168,243
1	0,000	122,138	2168,546
1	0,000	122,188	2169,150
1	0,000	122,238	2169,553
1	0,000	122,238	2169,955
1	0,000	122,288	2170,358
1	0,000	122,338	2170,862
1	0,000	122,338	2171,365
1	0,000	122,388	2171,869
1	0,000	122,438	2172,372
1	0,000	122,438	2172,876
1	0,000	122,488	2173,380
1	0,000	122,538	2173,883
1	0,000	122,538	2174,286
1	0,000	122,588	2174,789
1	0,000	122,638	2175,394
1	0,000	122,638	2175,797
1	0,000	122,688	2176,300
1	0,000	122,739	2176,904
1	0,000	122,739	2177,307
1	0,000	122,789	2177,811
1	0,000	122,839	2178,314
1	0,000	122,839	2178,918
1	0,000	122,889	2179,321
1	0,000	122,939	2179,825
1	0,000	122,939	2180,429
1	0,000	122,989	2180,933
1	0,000	123,039	2181,436
1	0,000	123,039	2181,839
1	0,000	123,089	2182,343
1	0,000	123,139	2182,846
1	0,000	123,139	2183,350
1	0,000	123,189	2183,853
1	0,000	123,240	2184,357
1	0,000	123,240	2184,961
1	0,000	123,290	2185,464
1	0,000	123,340	2185,968
1	0,000	123,340	2186,472
1	0,000	123,390	2186,975
1	0,000	123,440	2187,479
1	0,000	123,440	2187,982
1	0,000	123,490	2188,385
1	0,000	123,540	2188,889
1	0,000	123,540	2189,493
1	0,000	123,590	2189,896
1	0,000	123,640	2190,500
1	0,000	123,640	2190,903
1	0,000	123,690	2191,406
1	0,000	123,739	2191,910
1	0,000	123,739	2192,413
1	0,000	123,790	2192,917
1	0,000	123,840	2193,622
1	0,000	123,840	2194,226
1	0,000	123,890	2194,528
1	0,000	123,940	2194,931
1	0,000	123,940	2195,435
1	0,000	123,990	2195,938
1	0,000	124,040	2196,442
1	0,000	124,040	2196,945
1	0,000	124,090	2197,549
1	0,000	124,140	2197,952
1	0,000	124,140	2198,557
1	0,000	124,191	2199,060
1	0,000	124,241	2199,564
1	0,000	124,241	2200,067
1	0,000	124,291	2200,571
1	0,000	124,341	2201,175
1	0,000	124,341	2201,678
1	0,000	124,391	2202,182
1	0,000	124,441	2202,686
1	0,000	124,441	2203,189
1	0,000	124,492	2203,793
1	0,000	124,541	2204,196
1	0,000	124,541	2204,800
1	0,000	124,592	2205,304
1	0,000	124,642	2205,807
1	0,000	124,642	2206,412
1	0,000	124,692	2206,915
1	0,000	124,742	2207,419
1	0,000	124,742	2207,922
1	0,000	124,792	2208,527
1	0,000	124,842	2208,929
1	0,000	124,842	2209,534
1	0,000	124,892	2210,037
1	0,000	124,942	2210,541
1	0,000	124,942	2211,145
1	0,000	124,992	2211,649
1	0,000	125,042	2212,152
1	0,000	125,042	2212,656
1	0,000	125,092	2213,260
1	0,000	125,142	2213,763
1	0,000	125,142	2214,368
1	0,000	125,192	2214,871
1	0,000	125,242	2215,274
1	0,000	125,242	2215,878
1	0,000	125,292	2216,382
1	0,000	125,342	2216,986
1	0,000	125,342	2217,490
1	0,000	125,393	2218,094
1	0,000	125,444	2218,698
1	0,000	125,444	2219,202
1	0,000	125,493	2219,705
1	0,000	125,543	2220,309
1	0,000	125,543	2220,813
1	0,000	125,593	2221,417
1	0,000	125,644	2221,921
1	0,000	125,644	2222,424
1	0,000	125,694	2223,129
1	0,000	125,744	2223,532
1	0,000	125,744	2224,036
1	0,000	125,794	2224,640
1	0,000	125,844	2225,143
1	0,000	125,844	2225,748
1	0,000	125,894	2226,251
1	0,000	125,945	2226,855
1	0,000	125,945	2227,359
1	0,000	125,994	2227,863
1	0,000	126,045	2228,366
1	0,000	126,045	2228,970
1	0,000	126,095	2229,474
1	0,000	126,144	2230,078
1	0,000	126,144	2230,682
1	0,000	126,195	2231,186
1	0,000	126,245	2231,689
1	0,000	126,245	2232,193
1	0,000	126,295	2232,797
1	0,000	126,345	2233,401
1	0,000	126,345	2233,804
1	0,000	126,395	2234,409
1	0,000	126,445	2235,013
1	0,000	126,445	2235,516
1	0,000	126,496	2236,121
1	0,000	126,546	2236,624
1	0,000	126,546	2237,027
1	0,000	126,596	2237,631
1	0,000	126,646	2238,135
1	0,000	126,646	2238,739
1	0,000	126,696	2239,343
1	0,000	126,696	2239,847
1	0,000	126,746	2240,451
1	0,000	126,797	2241,055
1	0,000	126,847	2241,660
1	0,000	126,847	2242,264
1	0,000	126,897	2242,667
1	0,000	126,897	2243,170
1	0,000	126,947	2243,372
1	0,000	126,998	2244,379
1	0,000	126,998	2244,781
1	0,000	127,047	2245,386
1	0,000	127,098	2245,889
1	0,000	127,098	2246,494
1	0,000	127,148	2247,098
1	0,000	127,197	2247,601
1	0,000	127,197	2248,105
1	0,000	127,248	2248,709
1	0,000	127,298	2249,213
1	0,000	127,298	2249,716
1	0,000	127,349	2250,320
1	0,000	127,399	2250,824
1	0,000	127,399	2251,428
1	0,000	127,448	2251,932
1	0,000	127,498	2252,435
1	0,000	127,498	2253,140
1	0,000	127,548	2253,644
1	0,000	127,599	2254,147
1	0,000	127,599	2254,651
1	0,000	127,649	2255,255
1	0,000	127,699	2255,859
1	0,000	127,699	2256,464
1	0,000	127,749	2256,967
1	0,000	127,799	2257,471
1	0,000	127,799	2257,974
1	0,000	127,849	2258,578
1	0,000	127,899	2259,082
1	0,000	127,899	2259,686
1	0,000	127,949	2260,291
1	0,000	127,999	2260,794
1	0,000	127,999	2261,398
1	0,000	128,049	2262,003
1	0,000	128,099	2262,506
1	0,000	128,099	2263,110
1	0,000	128,149	2263,715
1	0,000	128,199	2264,218
1	0,000	128,199	2264,722
1	0,000	128,249	2265,326
1	0,000	128,300	2265,930
1	0,000	128,300	2266,434
1	0,000	128,350	2267,038
1	0,000	128,400	2267,542
1	0,000	128,400	2268,146
1	0,000	128,450	2268,750
1	0,000	128,500	2269,254
1	0,000	128,500	2269,858
1	0,000	128,550	2270,462
1	0,000	128,600	2270,966
1	0,000	128,600	2271,570
1	0,000	128,650	2272,174
1	0,000	128,701	2272,678
1	0,000	128,701	2273,282
1	0,000	128,751	2273,886
1	0,000	128,801	2274,490
1	0,000	128,801	2274,994
1	0,000	128,852	2275,598
1	0,000	128,902	2276,102
1	0,000	128,902	2276,706
1	0,000	128,952	2277,209
1	0,000	129,002	2277,914
1	0,000	129,002	2278,519
1	0,000	129,052	2279,022
1	0,000	129,103	2279,626
1	0,000	129,103	2280,231
1	0,000	129,153	2280,936
1	0,000	129,203	2281,540
1	0,000	129,203	2282,043
1	0,000	129,253	2282,648
1	0,000	129,303	2283,353
1	0,000	129,303	2283,856
1	0,000	129,353	2284,158
1	0,000	129,404	2284,863
1	0,000	129,404	2285,468
1	0,000	129,454	2286,072
1	0,000	129,504	2286,676
1	0,000	129,504	2287,180
1	0,000	129,554	2287,784
1	0,000	129,604	2288,388
1	0,000	129,604	2288,992
1	0,000	129,654	2289,697
1	0,000	129,705	2290,201
1	0,000	129,705	2290,906
1	0,000	129,754	2291,409
1	0,000	129,805	2292,114
1	0,000	129,805	2292,618
1	0,000	129,855	2293,222
1	0,000	129,905	2293,826
1	0,000	129,905	2294,229
1	0,000	129,955	2294,934
1	0,000	130,005	2295,438
1	0,000	130,005	2296,042
1	0,000	130,055	2296,646
1	0,000	130,106	2297,150
1	0,000	130,106	2297,754
1	0,000	130,156	2298,459
1	0,000	130,206	2298,962
1	0,000	130,206	2299,567
1	0,000	130,256	2300,171
1	0,000	130,306	2300,775
1	0,000	130,306	2301,379
1	0,000	130,356	2301,883
1	0,000	130,406	2302,487
1	0,000	130,406	2303,091
1	0,000	130,456	2303,595
1	0,000	130,507	2304,199
1	0,000	130,507	2304,803
1	0,000	130,557	2305,408
1	0,000	130,607	2306,012
1	0,000	130,607	2306,616
1	0,000	130,657	2307,220
1	0,000	130,707	2307,825
1	0,000	130,707	2308,429
1	0,000	130,757	2309,134
1	0,000	130,807	2309,637
1	0,000	130,807	2310,242
1	0,000	130,857	2310,745
1	0,000	130,908	2311,450
1	0,000	130,908	2312,054
1	0,000	130,957	2312,659
1	0,000	131,008	2313,263
1	0,000	131,008	2313,968
1	0,000	131,058	2314,572
1	0,000	131,108	2315,076
1	0,000	131,108	2315,680
1	0,000	131,157	2316,284
1	0,000	131,207	2316,888
1	0,000	131,207	2317,593
1	0,000	131,257	2318,097
1	0,000	131,307	2318,701
1	0,000	131,307	2319,406
1	0,000	131,357	2319,910
1	0,000	131,407	2320,615
1	0,000	131,407	2321,219
1	0,000	131,457	2321,823
1	0,000	131,507	2322,427
1	0,000	131,507	2322,931
1	0,000	131,557	2323,535
1	0,000	131,608	2324,240
1	0,000	131,608	2324,844
1	0,000	131,658	2325,449
1	0,000	131,707	2326,053
1	0,000	131,707	2326,657
1	0,000	131,758	2327,261
1	0,000	131,808	2327,966
1	0,000	131,808	2328,470
1	0,000	131,858	2329,074
1	0,000	131,908	2329,678
1	0,000	131,908	2330,283
1	0,000	131,958	2330,887
1	0,000	132,008	2331,491
1	0,000	132,008	2332,095
1	0,000	132,058	2332,800
1	0,000	132,108	2333,304
1	0,000	132,108	2333,908
1	0,000	132,159	2334,714
1	0,000	132,209	2335,217
1	0,000	132,209	2335,721
1	0,000	132,259	2336,526
1	0,000	132,309	2337,131
1	0,000	132,309	2337,634
1	0,000	132,359	2338,239
1	0,000	132,409	2338,843
1	0,000	132,409	2339,447
1	0,000	132,459	2340,051
1	0,000	132,459	2340,656
1	0,000	132,510	2341,260
1	0,000	132,560	2341,864
1	0,000	132,610	2342,569
1	0,000	132,610	2343,173
1	0,000	132,660	2343,777
1	0,000	132,660	2344,382
1	0,000	132,710	2344,986
1	0,000	132,760	2345,691
1	0,000	132,760	2346,194
1	0,000	132,810	2346,799
1	0,000	132,860	2347,403
1	0,000	132,860	2348,007
1	0,000	132,910	2348,611
1	0,000	132,960	2349,316
1	0,000	132,960	2349,921
1	0,000	133,010	2350,626
1	0,000	133,060	2351,129
1	0,000	133,060	2351,834
1	0,000	133,110	2352,438
1	0,000	133,161	2353,043
1	0,000	133,161	2353,647
1	0,000	133,211	2354,150
1	0,000	133,261	2354,956
1	0,000	133,261	2355,560
1	0,000	133,311	2356,165
1	0,000	133,361	2356,769
1	0,000	133,361	2357,373
1	0,000	133,411	2358,078
1	0,000	133,462	2358,783
1	0,000	133,462	2359,286
1	0,000	133,512	2359,991
1	0,000	133,562	2360,696
1	0,000	133,562	2361,200
1	0,000	133,612	2361,804
1	0,000	133,663	2362,509
1	0,000	133,663	2363,113
1	0,000	133,713	2363,516
1	0,000	133,763	2364,322
1	0,000	133,763	2364,926
1	0,000	133,813	2365,530
1	0,000	133,863	2366,135
1	0,000	133,863	2366,739
1	0,000	133,913	2367,545
1	0,000	133,963	2368,149
1	0,000	133,963	2368,753
1	0,000	134,013	2369,257
1	0,000	134,063	2369,861
1	0,000	134,063	2370,465
1	0,000	134,113	2371,170
1	0,000	134,164	2371,774
1	0,000	134,164	2372,379
1	0,000	134,214	2373,083
1	0,000	134,264	2373,688
1	0,000	134,264	2374,292
1	0,000	134,314	2374,997
1	0,000	134,364	2375,601
1	0,000	134,364	2376,306
1	0,000	134,414	2376,910
1	0,000	134,464	2377,515
1	0,000	134,464	2378,119
1	0,000	134,514	2378,824
1	0,000	134,565	2379,428
1	0,000	134,565	2380,133
1	0,000	134,615	2380,737
1	0,000	134,665	2381,442
1	0,000	134,665	2382,047
1	0,000	134,715	2382,852
1	0,000	134,766	2383,356
1	0,000	134,766	2383,960
1	0,000	134,815	2384,766
1	0,000	134,866	2385,471
1	0,000	134,866	2385,773
1	0,000	134,917	2386,679
1	0,000	134,967	2387,283
1	0,000	134,967	2388,190
1	0,000	135,017	2388,593
1	0,000	135,068	2389,700
1	0,000	135,068	2389,801
1	0,000	135,118	2390,506
1	0,000	135,168	2391,211
1	0,000	135,168	2391,815
1	0,000	135,218	2392,419
1	0,000	135,269	2393,024
1	0,000	135,269	2393,729
1	0,000	135,319	2394,434
1	0,000	135,369	2395,139
1	0,000	135,369	2395,743
1	0,000	135,419	2396,347
1	0,000	135,470	2397,052
1	0,000	135,470	2397,656
1	0,000	135,520	2398,361
1	0,000	135,570	2398,965
1	0,000	135,570	2399,570
1	0,000	135,620	2400,174
1	0,000	135,670	2400,778
1	0,000	135,670	2401,483
1	0,000	135,720	2401,987
1	0,000	135,770	2402,792
1	0,000	135,770	2403,497
1	0,000	135,821	2404,102
1	0,000	135,871	2404,807
1	0,000	135,871	2405,411
1	0,000	135,921	2406,116
1	0,000	135,971	2406,821
1	0,000	135,971	2407,425
1	0,000	136,022	2408,130
1	0,000	136,072	2408,734
1	0,000	136,072	2409,338
1	0,000	136,122	2410,043
1	0,000	136,172	2410,648
1	0,000	136,172	2411,453
1	0,000	136,222	2411,957
1	0,000	136,272	2412,561
1	0,000	136,272	2413,266
1	0,000	136,321	2413,971
1	0,000	136,372	2414,676
1	0,000	136,372	2415,280
1	0,000	136,422	2415,884
1	0,000	136,472	2416,589
1	0,000	136,472	2417,294
1	0,000	136,522	2417,899
1	0,000	136,572	2418,604
1	0,000	136,572	2419,308
1	0,000	136,622	2419,913
1	0,000	136,672	2420,517
1	0,000	136,672	2421,222
1	0,000	136,722	2421,826
1	0,000	136,772	2422,632
1	0,000	136,772	2423,135
1	0,000	136,823	2423,840
1	0,000	136,873	2424,445
1	0,000	136,873	2425,150
1	0,000	136,923	2425,754
1	0,000	136,973	2426,459
1	0,000	136,973	2427,164
1	0,000	137,023	2427,768
1	0,000	137,073	2428,473
1	0,000	137,073	2429,077
1	0,000	137,124	2429,782
1	0,000	137,124	2430,386
1	0,000	137,174	2431,091
1	0,000	137,224	2431,696
1	0,000	137,274	2432,904
1	0,000	137,274	2433,005
1	0,000	137,324	2433,609
1	0,000	137,374	2434,213
1	0,000	137,374	2434,918
1	0,000	137,424	2435,724
1	0,000	137,424	2436,227
1	0,000	137,475	2436,731
1	0,000	137,525	2437,537
1	0,000	137,525	2438,242
1	0,000	137,575	2438,947
1	0,000	137,626	2439,651
1	0,000	137,626	2440,356
1	0,000	137,676	2440,961
1	0,000	137,726	2441,464
1	0,000	137,726	2442,471
1	0,000	137,776	2442,975
1	0,000	137,826	2443,680
1	0,000	137,826	2444,385
1	0,000	137,876	2444,989
1	0,000	137,926	2445,694
1	0,000	137,926	2446,298
1	0,000	137,977	2446,902
1	0,000	138,027	2447,708
1	0,000	138,027	2448,413
1	0,000	138,077	2449,017
1	0,000	138,127	2449,722
1	0,000	138,127	2450,327
1	0,000	138,177	2451,031
1	0,000	138,227	2451,736
1	0,000	138,227	2452,542
1	0,000	138,277	2453,247
1	0,000	138,327	2453,751
1	0,000	138,327	2454,355
1	0,000	138,377	2455,060
1	0,000	138,427	2455,865
1	0,000	138,427	2456,570
1	0,000	138,477	2457,175
1	0,000	138,527	2457,880
1	0,000	138,527	2458,585
1	0,000	138,577	2459,290
1	0,000	138,628	2459,995
1	0,000	138,628	2460,599
1	0,000	138,678	2461,404
1	0,000	138,728	2462,009
1	0,000	138,728	2462,613
1	0,000	138,778	2463,217
1	0,000	138,827	2464,023
1	0,000	138,827	2464,627
1	0,000	138,878	2465,332
1	0,000	138,929	2466,037
1	0,000	138,929	2466,641
1	0,000	138,979	2467,447
1	0,000	139,029	2468,051
1	0,000	139,029	2468,655
1	0,000	139,079	2469,360
1	0,000	139,129	2470,166
1	0,000	139,129	2470,770
1	0,000	139,179	2471,375
1	0,000	139,230	2472,079
1	0,000	139,230	2472,784
1	0,000	139,280	2473,087
1	0,000	139,330	2474,094
1	0,000	139,330	2474,698
1	0,000	139,380	2475,504
1	0,000	139,430	2476,108
1	0,000	139,430	2476,813
1	0,000	139,480	2477,518
1	0,000	139,531	2478,323
1	0,000	139,531	2478,928
1	0,000	139,582	2479,633
1	0,000	139,632	2480,438
1	0,000	139,632	2481,042
1	0,000	139,683	2481,546
1	0,000	139,733	2482,251
1	0,000	139,733	2483,057
1	0,000	139,783	2483,661
1	0,000	139,833	2484,668
1	0,000	139,833	2485,071
1	0,000	139,883	2485,675
1	0,000	139,926	2486,179
1	0,000	139,926	2486,581
1	0,000	139,960	2486,884
1	0,000	139,983	2486,581
1	0,000	139,983	2487,085
1	0,000	139,996	2487,186
1	0,000	140,000	2487,186
1	0,000	140,000	2487,186
