Col.n° Rot(deg) Lin(mm) CHR(um)
1	0,000	80,097	1894,016
1	0,000	80,097	1894,016
1	0,000	80,145	1894,116
1	0,000	80,196	1893,915
1	0,000	80,196	1893,814
1	0,000	80,247	1893,814
1	0,000	80,297	1894,217
1	0,000	80,297	1893,814
1	0,000	80,347	1893,713
1	0,000	80,397	1893,713
1	0,000	80,397	1893,613
1	0,000	80,447	1893,411
1	0,000	80,497	1893,512
1	0,000	80,497	1893,512
1	0,000	80,547	1893,411
1	0,000	80,547	1893,411
1	0,000	80,597	1893,713
1	0,000	80,648	1893,311
1	0,000	80,648	1893,311
1	0,000	80,698	1893,311
1	0,000	80,748	1893,311
1	0,000	80,748	1893,311
1	0,000	80,798	1893,210
1	0,000	80,849	1893,210
1	0,000	80,849	1893,210
1	0,000	80,899	1893,210
1	0,000	80,950	1893,210
1	0,000	80,950	1893,109
1	0,000	80,999	1893,210
1	0,000	81,050	1893,109
1	0,000	81,050	1893,109
1	0,000	81,100	1893,008
1	0,000	81,150	1893,008
1	0,000	81,150	1893,008
1	0,000	81,200	1893,008
1	0,000	81,250	1892,908
1	0,000	81,250	1892,908
1	0,000	81,300	1892,908
1	0,000	81,350	1892,706
1	0,000	81,350	1892,908
1	0,000	81,400	1892,908
1	0,000	81,451	1892,706
1	0,000	81,451	1892,706
1	0,000	81,501	1892,807
1	0,000	81,551	1892,807
1	0,000	81,551	1892,606
1	0,000	81,601	1892,807
1	0,000	81,651	1892,706
1	0,000	81,651	1892,606
1	0,000	81,701	1892,807
1	0,000	81,752	1892,505
1	0,000	81,752	1892,706
1	0,000	81,802	1892,505
1	0,000	81,853	1892,606
1	0,000	81,853	1892,303
1	0,000	81,903	1892,303
1	0,000	81,953	1892,505
1	0,000	81,953	1892,404
1	0,000	82,003	1892,102
1	0,000	82,053	1892,303
1	0,000	82,053	1892,303
1	0,000	82,103	1892,303
1	0,000	82,154	1892,203
1	0,000	82,154	1892,203
1	0,000	82,204	1892,203
1	0,000	82,254	1892,303
1	0,000	82,254	1892,203
1	0,000	82,303	1892,303
1	0,000	82,353	1892,001
1	0,000	82,353	1892,203
1	0,000	82,403	1892,404
1	0,000	82,453	1892,001
1	0,000	82,453	1892,203
1	0,000	82,503	1892,303
1	0,000	82,553	1892,102
1	0,000	82,553	1892,203
1	0,000	82,604	1892,102
1	0,000	82,654	1892,203
1	0,000	82,654	1892,102
1	0,000	82,704	1892,001
1	0,000	82,754	1892,102
1	0,000	82,754	1892,203
1	0,000	82,805	1892,102
1	0,000	82,855	1892,203
1	0,000	82,855	1892,001
1	0,000	82,905	1892,001
1	0,000	82,955	1892,102
1	0,000	82,955	1892,102
1	0,000	83,005	1892,203
1	0,000	83,055	1892,102
1	0,000	83,055	1892,102
1	0,000	83,105	1892,001
1	0,000	83,155	1892,001
1	0,000	83,155	1891,800
1	0,000	83,206	1892,001
1	0,000	83,257	1891,800
1	0,000	83,257	1891,901
1	0,000	83,307	1891,901
1	0,000	83,357	1891,901
1	0,000	83,357	1891,901
1	0,000	83,407	1891,800
1	0,000	83,457	1891,901
1	0,000	83,457	1891,901
1	0,000	83,507	1891,901
1	0,000	83,507	1891,901
1	0,000	83,558	1891,901
1	0,000	83,608	1891,800
1	0,000	83,658	1891,599
1	0,000	83,658	1891,800
1	0,000	83,708	1892,102
1	0,000	83,758	1891,901
1	0,000	83,758	1891,901
1	0,000	83,808	1891,800
1	0,000	83,860	1891,800
1	0,000	83,860	1891,901
1	0,000	83,910	1891,800
1	0,000	83,960	1891,800
1	0,000	83,960	1891,800
1	0,000	84,010	1891,800
1	0,000	84,060	1891,800
1	0,000	84,060	1891,901
1	0,000	84,110	1891,699
1	0,000	84,161	1891,800
1	0,000	84,161	1891,800
1	0,000	84,211	1891,800
1	0,000	84,261	1892,001
1	0,000	84,261	1891,901
1	0,000	84,312	1891,800
1	0,000	84,312	1891,699
1	0,000	84,362	1891,800
1	0,000	84,412	1891,800
1	0,000	84,412	1891,699
1	0,000	84,462	1891,901
1	0,000	84,512	1891,800
1	0,000	84,512	1891,800
1	0,000	84,562	1891,901
1	0,000	84,613	1891,800
1	0,000	84,613	1891,800
1	0,000	84,663	1891,800
1	0,000	84,713	1891,901
1	0,000	84,713	1891,800
1	0,000	84,763	1891,901
1	0,000	84,813	1891,800
1	0,000	84,863	1891,901
1	0,000	84,863	1891,901
1	0,000	84,913	1891,800
1	0,000	84,913	1891,901
1	0,000	84,963	1891,901
1	0,000	85,013	1892,001
1	0,000	85,013	1892,001
1	0,000	85,064	1892,001
1	0,000	85,113	1891,901
1	0,000	85,113	1892,001
1	0,000	85,163	1892,001
1	0,000	85,214	1892,001
1	0,000	85,214	1891,901
1	0,000	85,264	1892,001
1	0,000	85,314	1891,901
1	0,000	85,314	1892,001
1	0,000	85,364	1892,001
1	0,000	85,414	1892,001
1	0,000	85,414	1892,203
1	0,000	85,465	1892,203
1	0,000	85,515	1892,102
1	0,000	85,515	1892,001
1	0,000	85,565	1892,102
1	0,000	85,616	1892,001
1	0,000	85,616	1892,102
1	0,000	85,666	1892,001
1	0,000	85,716	1892,102
1	0,000	85,716	1892,001
1	0,000	85,766	1892,203
1	0,000	85,816	1892,203
1	0,000	85,816	1892,102
1	0,000	85,866	1892,102
1	0,000	85,916	1892,102
1	0,000	85,916	1892,303
1	0,000	85,966	1892,203
1	0,000	86,017	1892,203
1	0,000	86,017	1892,303
1	0,000	86,067	1892,404
1	0,000	86,117	1892,404
1	0,000	86,117	1892,404
1	0,000	86,168	1892,303
1	0,000	86,218	1892,303
1	0,000	86,218	1892,404
1	0,000	86,268	1892,303
1	0,000	86,318	1892,404
1	0,000	86,318	1892,404
1	0,000	86,368	1892,303
1	0,000	86,418	1892,404
1	0,000	86,418	1892,303
1	0,000	86,468	1892,505
1	0,000	86,518	1892,404
1	0,000	86,518	1892,505
1	0,000	86,568	1892,404
1	0,000	86,618	1892,505
1	0,000	86,618	1892,404
1	0,000	86,669	1892,303
1	0,000	86,719	1892,404
1	0,000	86,719	1892,505
1	0,000	86,769	1892,606
1	0,000	86,819	1892,505
1	0,000	86,819	1892,706
1	0,000	86,869	1892,706
1	0,000	86,919	1892,606
1	0,000	86,919	1892,807
1	0,000	86,970	1892,807
1	0,000	87,019	1892,807
1	0,000	87,019	1892,807
1	0,000	87,069	1892,807
1	0,000	87,120	1892,908
1	0,000	87,120	1892,908
1	0,000	87,169	1893,008
1	0,000	87,219	1892,908
1	0,000	87,219	1893,008
1	0,000	87,269	1893,008
1	0,000	87,319	1893,008
1	0,000	87,319	1893,109
1	0,000	87,369	1893,109
1	0,000	87,420	1893,008
1	0,000	87,420	1893,008
1	0,000	87,469	1893,008
1	0,000	87,520	1893,008
1	0,000	87,520	1893,109
1	0,000	87,569	1893,311
1	0,000	87,620	1893,311
1	0,000	87,620	1893,311
1	0,000	87,670	1893,512
1	0,000	87,720	1893,613
1	0,000	87,720	1893,411
1	0,000	87,770	1893,512
1	0,000	87,820	1893,411
1	0,000	87,820	1893,613
1	0,000	87,871	1893,613
1	0,000	87,921	1893,512
1	0,000	87,921	1893,512
1	0,000	87,971	1893,814
1	0,000	88,022	1893,814
1	0,000	88,022	1893,814
1	0,000	88,071	1894,016
1	0,000	88,122	1893,915
1	0,000	88,122	1893,915
1	0,000	88,171	1893,915
1	0,000	88,221	1894,217
1	0,000	88,221	1894,217
1	0,000	88,272	1894,217
1	0,000	88,322	1894,217
1	0,000	88,322	1894,217
1	0,000	88,371	1894,217
1	0,000	88,422	1894,318
1	0,000	88,422	1894,318
1	0,000	88,472	1894,519
1	0,000	88,522	1894,318
1	0,000	88,522	1894,418
1	0,000	88,572	1894,418
1	0,000	88,623	1894,519
1	0,000	88,623	1894,620
1	0,000	88,673	1894,620
1	0,000	88,723	1894,821
1	0,000	88,723	1894,620
1	0,000	88,773	1895,224
1	0,000	88,824	1894,821
1	0,000	88,824	1895,023
1	0,000	88,874	1894,821
1	0,000	88,923	1895,023
1	0,000	88,923	1895,023
1	0,000	88,974	1895,023
1	0,000	89,023	1895,023
1	0,000	89,023	1895,123
1	0,000	89,074	1895,224
1	0,000	89,124	1895,325
1	0,000	89,124	1895,224
1	0,000	89,174	1895,425
1	0,000	89,224	1895,325
1	0,000	89,224	1895,526
1	0,000	89,274	1895,627
1	0,000	89,325	1895,627
1	0,000	89,325	1895,627
1	0,000	89,375	1895,728
1	0,000	89,424	1895,828
1	0,000	89,424	1895,828
1	0,000	89,474	1896,030
1	0,000	89,524	1896,030
1	0,000	89,524	1896,030
1	0,000	89,574	1896,030
1	0,000	89,625	1896,030
1	0,000	89,625	1896,130
1	0,000	89,675	1896,130
1	0,000	89,725	1896,332
1	0,000	89,725	1896,332
1	0,000	89,775	1896,332
1	0,000	89,825	1896,332
1	0,000	89,825	1896,432
1	0,000	89,875	1896,533
1	0,000	89,925	1896,634
1	0,000	89,925	1896,634
1	0,000	89,975	1896,735
1	0,000	90,025	1896,835
1	0,000	90,025	1896,936
1	0,000	90,076	1896,332
1	0,000	90,076	1897,137
1	0,000	90,126	1897,238
1	0,000	90,176	1897,238
1	0,000	90,226	1897,339
1	0,000	90,226	1897,137
1	0,000	90,276	1897,238
1	0,000	90,326	1897,339
1	0,000	90,326	1897,238
1	0,000	90,376	1897,339
1	0,000	90,376	1897,440
1	0,000	90,426	1897,842
1	0,000	90,476	1897,641
1	0,000	90,526	1897,641
1	0,000	90,526	1897,842
1	0,000	90,576	1897,943
1	0,000	90,576	1897,943
1	0,000	90,626	1897,943
1	0,000	90,676	1898,145
1	0,000	90,726	1898,245
1	0,000	90,726	1898,245
1	0,000	90,776	1898,346
1	0,000	90,776	1898,447
1	0,000	90,826	1898,447
1	0,000	90,876	1898,547
1	0,000	90,876	1898,648
1	0,000	90,926	1898,648
1	0,000	90,976	1898,749
1	0,000	90,976	1898,950
1	0,000	91,026	1898,849
1	0,000	91,077	1898,950
1	0,000	91,077	1899,051
1	0,000	91,127	1899,152
1	0,000	91,177	1899,152
1	0,000	91,177	1899,252
1	0,000	91,227	1899,454
1	0,000	91,277	1899,554
1	0,000	91,277	1899,554
1	0,000	91,327	1899,554
1	0,000	91,377	1899,655
1	0,000	91,377	1899,655
1	0,000	91,427	1899,756
1	0,000	91,477	1899,857
1	0,000	91,477	1899,957
1	0,000	91,527	1900,058
1	0,000	91,578	1900,058
1	0,000	91,578	1900,159
1	0,000	91,627	1900,159
1	0,000	91,678	1900,259
1	0,000	91,678	1900,360
1	0,000	91,728	1900,461
1	0,000	91,778	1900,562
1	0,000	91,778	1900,562
1	0,000	91,828	1900,662
1	0,000	91,878	1900,763
1	0,000	91,878	1900,763
1	0,000	91,928	1900,864
1	0,000	91,978	1900,964
1	0,000	91,978	1901,065
1	0,000	92,029	1901,065
1	0,000	92,079	1901,166
1	0,000	92,079	1901,266
1	0,000	92,129	1901,468
1	0,000	92,179	1901,468
1	0,000	92,179	1901,569
1	0,000	92,229	1901,569
1	0,000	92,278	1901,669
1	0,000	92,278	1901,770
1	0,000	92,329	1901,971
1	0,000	92,379	1902,072
1	0,000	92,379	1902,072
1	0,000	92,429	1902,274
1	0,000	92,479	1902,274
1	0,000	92,479	1902,374
1	0,000	92,530	1902,475
1	0,000	92,580	1902,676
1	0,000	92,580	1902,676
1	0,000	92,631	1902,878
1	0,000	92,681	1902,878
1	0,000	92,681	1903,079
1	0,000	92,731	1903,281
1	0,000	92,781	1903,281
1	0,000	92,781	1903,281
1	0,000	92,831	1903,381
1	0,000	92,881	1903,482
1	0,000	92,881	1903,583
1	0,000	92,931	1903,784
1	0,000	92,981	1903,784
1	0,000	92,981	1903,885
1	0,000	93,032	1904,086
1	0,000	93,082	1904,187
1	0,000	93,082	1904,288
1	0,000	93,132	1904,388
1	0,000	93,181	1904,590
1	0,000	93,181	1904,489
1	0,000	93,232	1904,691
1	0,000	93,282	1904,791
1	0,000	93,282	1904,892
1	0,000	93,333	1904,892
1	0,000	93,383	1904,892
1	0,000	93,383	1905,295
1	0,000	93,433	1905,295
1	0,000	93,483	1905,396
1	0,000	93,483	1905,295
1	0,000	93,533	1905,396
1	0,000	93,583	1905,396
1	0,000	93,583	1905,597
1	0,000	93,633	1905,698
1	0,000	93,683	1905,798
1	0,000	93,683	1905,798
1	0,000	93,733	1906,000
1	0,000	93,783	1906,100
1	0,000	93,783	1906,201
1	0,000	93,833	1906,302
1	0,000	93,884	1906,403
1	0,000	93,884	1906,604
1	0,000	93,934	1906,705
1	0,000	93,984	1906,805
1	0,000	93,984	1906,906
1	0,000	94,034	1907,007
1	0,000	94,084	1907,208
1	0,000	94,084	1907,208
1	0,000	94,135	1907,410
1	0,000	94,185	1907,510
1	0,000	94,185	1907,611
1	0,000	94,236	1907,812
1	0,000	94,286	1907,812
1	0,000	94,286	1908,014
1	0,000	94,336	1908,014
1	0,000	94,386	1908,115
1	0,000	94,386	1908,215
1	0,000	94,437	1908,316
1	0,000	94,487	1908,517
1	0,000	94,487	1908,517
1	0,000	94,537	1908,719
1	0,000	94,586	1908,820
1	0,000	94,586	1908,920
1	0,000	94,638	1909,021
1	0,000	94,688	1909,122
1	0,000	94,688	1909,323
1	0,000	94,738	1909,525
1	0,000	94,788	1909,625
1	0,000	94,788	1909,625
1	0,000	94,839	1909,827
1	0,000	94,889	1909,927
1	0,000	94,889	1909,927
1	0,000	94,939	1910,129
1	0,000	94,989	1910,330
1	0,000	94,989	1910,431
1	0,000	95,039	1910,431
1	0,000	95,089	1910,632
1	0,000	95,089	1910,733
1	0,000	95,139	1910,934
1	0,000	95,189	1911,035
1	0,000	95,189	1911,136
1	0,000	95,239	1911,237
1	0,000	95,288	1911,337
1	0,000	95,288	1911,539
1	0,000	95,339	1911,639
1	0,000	95,389	1911,740
1	0,000	95,389	1911,942
1	0,000	95,439	1912,143
1	0,000	95,489	1912,143
1	0,000	95,489	1912,344
1	0,000	95,539	1912,445
1	0,000	95,589	1912,747
1	0,000	95,589	1912,848
1	0,000	95,639	1912,949
1	0,000	95,689	1913,049
1	0,000	95,689	1913,251
1	0,000	95,739	1913,452
1	0,000	95,789	1913,452
1	0,000	95,789	1913,452
1	0,000	95,840	1913,654
1	0,000	95,889	1913,855
1	0,000	95,889	1914,056
1	0,000	95,939	1914,157
1	0,000	95,989	1914,258
1	0,000	95,989	1914,560
1	0,000	96,040	1914,661
1	0,000	96,090	1914,761
1	0,000	96,090	1914,761
1	0,000	96,140	1914,862
1	0,000	96,140	1915,063
1	0,000	96,190	1915,265
1	0,000	96,241	1915,265
1	0,000	96,241	1915,466
1	0,000	96,291	1915,567
1	0,000	96,341	1915,668
1	0,000	96,341	1915,869
1	0,000	96,391	1915,970
1	0,000	96,442	1916,171
1	0,000	96,442	1916,272
1	0,000	96,492	1916,473
1	0,000	96,542	1916,574
1	0,000	96,542	1916,675
1	0,000	96,591	1916,776
1	0,000	96,642	1916,977
1	0,000	96,642	1917,178
1	0,000	96,693	1917,380
1	0,000	96,742	1917,380
1	0,000	96,742	1917,581
1	0,000	96,792	1917,783
1	0,000	96,842	1917,883
1	0,000	96,842	1917,984
1	0,000	96,893	1918,185
1	0,000	96,943	1918,387
1	0,000	96,943	1918,488
1	0,000	96,994	1918,588
1	0,000	97,044	1918,689
1	0,000	97,044	1918,890
1	0,000	97,094	1918,991
1	0,000	97,145	1919,193
1	0,000	97,145	1919,193
1	0,000	97,194	1919,495
1	0,000	97,244	1919,595
1	0,000	97,244	1919,696
1	0,000	97,294	1919,897
1	0,000	97,344	1919,998
1	0,000	97,344	1920,200
1	0,000	97,394	1920,502
1	0,000	97,444	1920,602
1	0,000	97,444	1920,804
1	0,000	97,495	1920,804
1	0,000	97,545	1921,106
1	0,000	97,545	1921,307
1	0,000	97,595	1921,307
1	0,000	97,645	1921,609
1	0,000	97,645	1921,710
1	0,000	97,695	1921,912
1	0,000	97,745	1922,012
1	0,000	97,745	1922,214
1	0,000	97,795	1922,314
1	0,000	97,846	1922,617
1	0,000	97,846	1922,818
1	0,000	97,896	1922,919
1	0,000	97,945	1923,019
1	0,000	97,945	1923,322
1	0,000	97,996	1923,322
1	0,000	98,046	1923,624
1	0,000	98,046	1923,724
1	0,000	98,096	1923,825
1	0,000	98,146	1924,026
1	0,000	98,146	1924,228
1	0,000	98,196	1924,329
1	0,000	98,247	1924,631
1	0,000	98,247	1924,832
1	0,000	98,297	1924,933
1	0,000	98,347	1925,134
1	0,000	98,347	1925,336
1	0,000	98,397	1925,436
1	0,000	98,447	1925,638
1	0,000	98,447	1925,839
1	0,000	98,497	1925,940
1	0,000	98,547	1926,141
1	0,000	98,547	1926,343
1	0,000	98,597	1926,544
1	0,000	98,648	1926,746
1	0,000	98,648	1926,846
1	0,000	98,697	1927,048
1	0,000	98,748	1927,249
1	0,000	98,748	1927,350
1	0,000	98,798	1927,551
1	0,000	98,848	1927,753
1	0,000	98,848	1927,954
1	0,000	98,898	1928,156
1	0,000	98,949	1928,256
1	0,000	98,949	1928,458
1	0,000	98,999	1928,558
1	0,000	99,049	1928,760
1	0,000	99,049	1928,760
1	0,000	99,099	1929,062
1	0,000	99,149	1929,364
1	0,000	99,149	1929,565
1	0,000	99,199	1929,767
1	0,000	99,249	1929,968
1	0,000	99,249	1930,069
1	0,000	99,299	1930,270
1	0,000	99,349	1930,472
1	0,000	99,349	1930,673
1	0,000	99,399	1930,875
1	0,000	99,449	1930,975
1	0,000	99,449	1931,076
1	0,000	99,499	1931,378
1	0,000	99,549	1931,479
1	0,000	99,549	1931,580
1	0,000	99,599	1931,680
1	0,000	99,650	1931,982
1	0,000	99,650	1932,184
1	0,000	99,699	1932,385
1	0,000	99,749	1932,687
1	0,000	99,749	1932,788
1	0,000	99,799	1932,990
1	0,000	99,850	1933,191
1	0,000	99,850	1933,292
1	0,000	99,900	1933,493
1	0,000	99,950	1933,694
1	0,000	99,950	1933,896
1	0,000	100,000	1933,997
1	0,000	100,051	1934,198
1	0,000	100,051	1934,399
1	0,000	100,101	1934,601
1	0,000	100,151	1934,903
1	0,000	100,151	1935,104
1	0,000	100,201	1935,306
1	0,000	100,251	1935,406
1	0,000	100,251	1935,608
1	0,000	100,301	1935,809
1	0,000	100,351	1936,011
1	0,000	100,351	1936,212
1	0,000	100,402	1936,414
1	0,000	100,452	1936,615
1	0,000	100,452	1936,816
1	0,000	100,502	1937,018
1	0,000	100,552	1937,320
1	0,000	100,552	1937,521
1	0,000	100,602	1937,723
1	0,000	100,652	1937,924
1	0,000	100,652	1938,126
1	0,000	100,702	1938,428
1	0,000	100,752	1938,528
1	0,000	100,752	1938,730
1	0,000	100,801	1938,931
1	0,000	100,852	1939,133
1	0,000	100,852	1939,334
1	0,000	100,902	1939,536
1	0,000	100,952	1939,636
1	0,000	100,952	1939,938
1	0,000	101,002	1940,140
1	0,000	101,052	1940,341
1	0,000	101,052	1940,643
1	0,000	101,103	1940,845
1	0,000	101,152	1940,945
1	0,000	101,152	1941,248
1	0,000	101,202	1941,449
1	0,000	101,252	1941,751
1	0,000	101,252	1941,953
1	0,000	101,303	1942,053
1	0,000	101,353	1942,355
1	0,000	101,353	1942,456
1	0,000	101,403	1942,657
1	0,000	101,453	1942,960
1	0,000	101,453	1943,161
1	0,000	101,503	1943,362
1	0,000	101,553	1943,564
1	0,000	101,553	1943,765
1	0,000	101,603	1944,067
1	0,000	101,653	1944,370
1	0,000	101,653	1944,470
1	0,000	101,704	1944,672
1	0,000	101,753	1944,974
1	0,000	101,753	1945,175
1	0,000	101,804	1945,276
1	0,000	101,854	1945,578
1	0,000	101,854	1945,779
1	0,000	101,904	1945,981
1	0,000	101,904	1946,182
1	0,000	101,954	1946,384
1	0,000	102,004	1946,686
1	0,000	102,004	1946,887
1	0,000	102,054	1947,189
1	0,000	102,104	1947,391
1	0,000	102,104	1947,592
1	0,000	102,155	1947,693
1	0,000	102,204	1947,995
1	0,000	102,204	1948,196
1	0,000	102,255	1948,398
1	0,000	102,305	1948,700
1	0,000	102,305	1948,901
1	0,000	102,356	1949,103
1	0,000	102,406	1949,304
1	0,000	102,406	1949,606
1	0,000	102,456	1949,808
1	0,000	102,506	1950,009
1	0,000	102,506	1950,211
1	0,000	102,556	1950,513
1	0,000	102,606	1950,714
1	0,000	102,606	1950,916
1	0,000	102,656	1951,016
1	0,000	102,706	1951,318
1	0,000	102,706	1951,520
1	0,000	102,756	1951,822
1	0,000	102,806	1951,923
1	0,000	102,806	1952,225
1	0,000	102,856	1952,426
1	0,000	102,906	1952,728
1	0,000	102,906	1952,829
1	0,000	102,956	1953,030
1	0,000	103,006	1953,232
1	0,000	103,006	1953,534
1	0,000	103,057	1953,735
1	0,000	103,107	1953,937
1	0,000	103,107	1954,138
1	0,000	103,157	1954,340
1	0,000	103,207	1954,742
1	0,000	103,207	1954,843
1	0,000	103,258	1955,145
1	0,000	103,308	1955,347
1	0,000	103,308	1955,649
1	0,000	103,358	1955,850
1	0,000	103,408	1956,052
1	0,000	103,408	1956,253
1	0,000	103,458	1956,555
1	0,000	103,508	1956,757
1	0,000	103,508	1957,059
1	0,000	103,558	1957,361
1	0,000	103,609	1957,562
1	0,000	103,609	1957,764
1	0,000	103,658	1958,066
1	0,000	103,709	1958,267
1	0,000	103,709	1958,569
1	0,000	103,759	1958,771
1	0,000	103,809	1958,972
1	0,000	103,809	1959,274
1	0,000	103,859	1959,476
1	0,000	103,909	1959,677
1	0,000	103,909	1959,979
1	0,000	103,960	1960,181
1	0,000	104,010	1960,483
1	0,000	104,010	1960,684
1	0,000	104,060	1960,886
1	0,000	104,110	1961,188
1	0,000	104,110	1961,490
1	0,000	104,160	1961,792
1	0,000	104,210	1961,993
1	0,000	104,210	1962,195
1	0,000	104,260	1962,497
1	0,000	104,310	1962,799
1	0,000	104,310	1963,101
1	0,000	104,360	1963,303
1	0,000	104,411	1963,605
1	0,000	104,411	1963,806
1	0,000	104,461	1964,008
1	0,000	104,511	1964,310
1	0,000	104,511	1964,612
1	0,000	104,562	1964,612
1	0,000	104,612	1965,015
1	0,000	104,612	1965,115
1	0,000	104,662	1965,619
1	0,000	104,712	1965,720
1	0,000	104,712	1966,122
1	0,000	104,762	1966,324
1	0,000	104,812	1966,626
1	0,000	104,812	1966,928
1	0,000	104,862	1967,130
1	0,000	104,913	1967,432
1	0,000	104,913	1967,633
1	0,000	104,962	1967,935
1	0,000	105,013	1968,237
1	0,000	105,013	1968,539
1	0,000	105,063	1968,741
1	0,000	105,113	1969,043
1	0,000	105,113	1969,345
1	0,000	105,164	1969,547
1	0,000	105,214	1969,849
1	0,000	105,214	1970,050
1	0,000	105,264	1970,453
1	0,000	105,315	1970,654
1	0,000	105,315	1970,856
1	0,000	105,365	1971,158
1	0,000	105,416	1971,359
1	0,000	105,416	1971,762
1	0,000	105,466	1972,064
1	0,000	105,516	1972,266
1	0,000	105,516	1972,568
1	0,000	105,566	1972,769
1	0,000	105,617	1973,172
1	0,000	105,617	1973,373
1	0,000	105,667	1973,575
1	0,000	105,717	1973,877
1	0,000	105,717	1974,179
1	0,000	105,767	1974,380
1	0,000	105,817	1974,582
1	0,000	105,817	1975,287
1	0,000	105,867	1975,589
1	0,000	105,917	1975,589
1	0,000	105,917	1975,690
1	0,000	105,967	1976,093
1	0,000	106,017	1976,395
1	0,000	106,017	1976,697
1	0,000	106,067	1976,999
1	0,000	106,117	1977,100
1	0,000	106,117	1977,402
1	0,000	106,168	1977,805
1	0,000	106,218	1978,006
1	0,000	106,218	1978,409
1	0,000	106,267	1978,610
1	0,000	106,317	1978,912
1	0,000	106,317	1979,214
1	0,000	106,367	1979,517
1	0,000	106,418	1979,718
1	0,000	106,418	1980,121
1	0,000	106,468	1980,423
1	0,000	106,518	1980,725
1	0,000	106,518	1980,927
1	0,000	106,569	1981,329
1	0,000	106,618	1981,631
1	0,000	106,618	1981,934
1	0,000	106,668	1982,236
1	0,000	106,668	1982,538
1	0,000	106,719	1982,840
1	0,000	106,769	1983,041
1	0,000	106,769	1983,444
1	0,000	106,819	1983,746
1	0,000	106,868	1984,048
1	0,000	106,868	1984,351
1	0,000	106,919	1984,653
1	0,000	106,969	1984,854
1	0,000	106,969	1985,257
1	0,000	107,019	1985,559
1	0,000	107,069	1985,760
1	0,000	107,069	1986,163
1	0,000	107,120	1986,365
1	0,000	107,169	1986,969
1	0,000	107,169	1987,271
1	0,000	107,220	1987,976
1	0,000	107,270	1987,775
1	0,000	107,270	1988,278
1	0,000	107,320	1988,278
1	0,000	107,371	1988,782
1	0,000	107,371	1988,882
1	0,000	107,421	1989,285
1	0,000	107,471	1989,487
1	0,000	107,471	1989,688
1	0,000	107,522	1989,990
1	0,000	107,572	1990,292
1	0,000	107,572	1990,594
1	0,000	107,623	1990,897
1	0,000	107,673	1991,199
1	0,000	107,673	1991,501
1	0,000	107,723	1991,803
1	0,000	107,773	1992,105
1	0,000	107,773	1992,407
1	0,000	107,823	1992,709
1	0,000	107,873	1993,011
1	0,000	107,873	1993,414
1	0,000	107,923	1993,716
1	0,000	107,973	1994,019
1	0,000	107,973	1994,421
1	0,000	108,024	1994,724
1	0,000	108,074	1994,925
1	0,000	108,074	1995,328
1	0,000	108,124	1995,731
1	0,000	108,175	1996,033
1	0,000	108,175	1996,234
1	0,000	108,225	1996,637
1	0,000	108,274	1997,040
1	0,000	108,274	1997,241
1	0,000	108,325	1997,443
1	0,000	108,376	1997,845
1	0,000	108,376	1998,248
1	0,000	108,426	1998,450
1	0,000	108,476	1998,853
1	0,000	108,476	1999,255
1	0,000	108,526	1999,557
1	0,000	108,576	2000,061
1	0,000	108,576	2000,162
1	0,000	108,626	2000,464
1	0,000	108,676	2000,867
1	0,000	108,676	2001,068
1	0,000	108,727	2001,370
1	0,000	108,776	2001,773
1	0,000	108,776	2001,974
1	0,000	108,827	2002,377
1	0,000	108,877	2002,679
1	0,000	108,877	2003,183
1	0,000	108,927	2003,687
1	0,000	108,977	2003,687
1	0,000	108,977	2003,888
1	0,000	109,027	2004,291
1	0,000	109,077	2004,492
1	0,000	109,077	2004,895
1	0,000	109,127	2005,197
1	0,000	109,177	2005,600
1	0,000	109,177	2006,003
1	0,000	109,227	2006,305
1	0,000	109,277	2006,708
1	0,000	109,277	2007,010
1	0,000	109,327	2007,413
1	0,000	109,378	2007,816
1	0,000	109,378	2008,118
1	0,000	109,427	2008,420
1	0,000	109,478	2008,722
1	0,000	109,478	2009,024
1	0,000	109,528	2009,427
1	0,000	109,578	2009,830
1	0,000	109,578	2010,132
1	0,000	109,628	2010,434
1	0,000	109,678	2010,736
1	0,000	109,678	2011,139
1	0,000	109,728	2011,441
1	0,000	109,779	2011,743
1	0,000	109,779	2012,146
1	0,000	109,829	2012,448
1	0,000	109,879	2012,851
1	0,000	109,879	2013,153
1	0,000	109,929	2013,556
1	0,000	109,929	2013,858
1	0,000	109,979	2014,160
1	0,000	110,030	2014,563
1	0,000	110,080	2014,865
1	0,000	110,080	2015,167
1	0,000	110,130	2015,570
1	0,000	110,181	2015,872
1	0,000	110,181	2016,275
1	0,000	110,231	2016,577
1	0,000	110,281	2016,879
1	0,000	110,281	2017,282
1	0,000	110,331	2017,685
1	0,000	110,382	2017,987
1	0,000	110,382	2018,390
1	0,000	110,432	2018,692
1	0,000	110,482	2019,095
1	0,000	110,482	2019,397
1	0,000	110,532	2019,800
1	0,000	110,582	2020,203
1	0,000	110,582	2020,505
1	0,000	110,633	2020,908
1	0,000	110,683	2021,210
1	0,000	110,683	2021,512
1	0,000	110,733	2021,915
1	0,000	110,733	2022,116
1	0,000	110,784	2022,418
1	0,000	110,834	2022,821
1	0,000	110,834	2023,123
1	0,000	110,884	2023,425
1	0,000	110,934	2023,828
1	0,000	110,934	2024,130
1	0,000	110,984	2024,432
1	0,000	111,035	2024,835
1	0,000	111,035	2025,137
1	0,000	111,084	2025,540
1	0,000	111,135	2025,943
1	0,000	111,135	2026,245
1	0,000	111,185	2026,547
1	0,000	111,235	2026,950
1	0,000	111,235	2027,252
1	0,000	111,285	2027,655
1	0,000	111,335	2027,957
1	0,000	111,335	2028,259
1	0,000	111,386	2028,561
1	0,000	111,436	2029,065
1	0,000	111,436	2029,367
1	0,000	111,486	2029,770
1	0,000	111,537	2030,072
1	0,000	111,537	2030,475
1	0,000	111,587	2030,878
1	0,000	111,638	2031,281
1	0,000	111,638	2031,683
1	0,000	111,688	2032,086
1	0,000	111,738	2032,388
1	0,000	111,738	2032,892
1	0,000	111,788	2033,295
1	0,000	111,839	2033,597
1	0,000	111,839	2034,000
1	0,000	111,889	2034,402
1	0,000	111,939	2034,604
1	0,000	111,939	2035,007
1	0,000	111,989	2035,410
1	0,000	112,039	2035,712
1	0,000	112,039	2036,014
1	0,000	112,090	2036,316
1	0,000	112,140	2036,618
1	0,000	112,140	2037,021
1	0,000	112,190	2037,323
1	0,000	112,241	2037,625
1	0,000	112,241	2038,028
1	0,000	112,291	2038,330
1	0,000	112,341	2038,733
1	0,000	112,341	2039,136
1	0,000	112,391	2039,539
1	0,000	112,441	2039,841
1	0,000	112,441	2040,344
1	0,000	112,491	2040,747
1	0,000	112,541	2040,948
1	0,000	112,541	2041,351
1	0,000	112,590	2041,754
1	0,000	112,641	2042,157
1	0,000	112,641	2042,560
1	0,000	112,691	2042,862
1	0,000	112,741	2043,365
1	0,000	112,741	2043,768
1	0,000	112,792	2044,070
1	0,000	112,841	2044,473
1	0,000	112,841	2044,876
1	0,000	112,892	2045,279
1	0,000	112,942	2045,883
1	0,000	112,942	2046,185
1	0,000	112,992	2046,588
1	0,000	113,042	2046,991
1	0,000	113,042	2047,293
1	0,000	113,092	2047,495
1	0,000	113,142	2047,998
1	0,000	113,142	2048,300
1	0,000	113,192	2048,602
1	0,000	113,242	2049,005
1	0,000	113,242	2049,307
1	0,000	113,293	2049,710
1	0,000	113,343	2050,012
1	0,000	113,343	2050,415
1	0,000	113,393	2050,818
1	0,000	113,443	2051,221
1	0,000	113,443	2051,523
1	0,000	113,494	2052,026
1	0,000	113,544	2052,328
1	0,000	113,544	2052,731
1	0,000	113,594	2053,134
1	0,000	113,644	2053,537
1	0,000	113,644	2053,940
1	0,000	113,694	2054,343
1	0,000	113,745	2054,745
1	0,000	113,745	2055,148
1	0,000	113,795	2055,551
1	0,000	113,845	2055,954
1	0,000	113,845	2056,357
1	0,000	113,895	2056,659
1	0,000	113,945	2057,062
1	0,000	113,945	2057,465
1	0,000	113,996	2057,968
1	0,000	114,045	2058,270
1	0,000	114,045	2058,673
1	0,000	114,095	2059,076
1	0,000	114,145	2059,479
1	0,000	114,145	2059,982
1	0,000	114,195	2060,284
1	0,000	114,246	2060,687
1	0,000	114,246	2061,090
1	0,000	114,296	2061,594
1	0,000	114,346	2061,896
1	0,000	114,346	2062,299
1	0,000	114,396	2062,701
1	0,000	114,446	2063,004
1	0,000	114,446	2063,507
1	0,000	114,496	2063,910
1	0,000	114,547	2064,212
1	0,000	114,547	2064,716
1	0,000	114,596	2065,118
1	0,000	114,646	2065,622
1	0,000	114,646	2065,924
1	0,000	114,696	2066,428
1	0,000	114,746	2066,830
1	0,000	114,746	2067,233
1	0,000	114,796	2067,636
1	0,000	114,846	2068,039
1	0,000	114,846	2068,542
1	0,000	114,896	2069,046
1	0,000	114,947	2069,449
1	0,000	114,947	2069,852
1	0,000	114,997	2070,154
1	0,000	115,047	2070,557
1	0,000	115,047	2070,959
1	0,000	115,097	2071,362
1	0,000	115,147	2071,866
1	0,000	115,147	2072,168
1	0,000	115,197	2072,672
1	0,000	115,247	2073,175
1	0,000	115,247	2073,578
1	0,000	115,298	2073,880
1	0,000	115,298	2074,283
1	0,000	115,348	2074,686
1	0,000	115,399	2074,988
1	0,000	115,399	2075,491
1	0,000	115,449	2075,793
1	0,000	115,499	2076,398
1	0,000	115,499	2076,700
1	0,000	115,549	2077,203
1	0,000	115,599	2077,707
1	0,000	115,599	2078,009
1	0,000	115,649	2078,613
1	0,000	115,700	2079,016
1	0,000	115,700	2079,419
1	0,000	115,749	2079,822
1	0,000	115,800	2080,124
1	0,000	115,800	2080,627
1	0,000	115,850	2081,030
1	0,000	115,900	2081,433
1	0,000	115,900	2081,836
1	0,000	115,950	2082,339
1	0,000	116,000	2082,742
1	0,000	116,000	2082,944
1	0,000	116,050	2083,447
1	0,000	116,099	2083,951
1	0,000	116,099	2084,354
1	0,000	116,150	2084,756
1	0,000	116,201	2085,059
1	0,000	116,201	2085,562
1	0,000	116,251	2085,965
1	0,000	116,300	2086,368
1	0,000	116,300	2086,771
1	0,000	116,351	2087,173
1	0,000	116,400	2087,677
1	0,000	116,400	2088,080
1	0,000	116,451	2088,483
1	0,000	116,501	2089,087
1	0,000	116,501	2089,389
1	0,000	116,551	2089,792
1	0,000	116,601	2090,295
1	0,000	116,601	2090,698
1	0,000	116,651	2091,202
1	0,000	116,700	2091,705
1	0,000	116,700	2092,108
1	0,000	116,751	2092,511
1	0,000	116,801	2092,914
1	0,000	116,801	2093,317
1	0,000	116,851	2093,719
1	0,000	116,901	2094,122
1	0,000	116,901	2094,626
1	0,000	116,951	2095,029
1	0,000	117,001	2095,432
1	0,000	117,001	2095,834
1	0,000	117,051	2096,338
1	0,000	117,101	2096,741
1	0,000	117,101	2097,244
1	0,000	117,152	2097,748
1	0,000	117,202	2098,050
1	0,000	117,202	2098,553
1	0,000	117,252	2098,956
1	0,000	117,302	2099,359
1	0,000	117,302	2099,762
1	0,000	117,353	2100,165
1	0,000	117,402	2100,668
1	0,000	117,402	2101,071
1	0,000	117,453	2101,474
1	0,000	117,502	2101,978
1	0,000	117,502	2102,280
1	0,000	117,553	2102,783
1	0,000	117,603	2103,387
1	0,000	117,603	2103,690
1	0,000	117,653	2104,092
1	0,000	117,703	2104,596
1	0,000	117,703	2104,999
1	0,000	117,754	2105,502
1	0,000	117,804	2105,804
1	0,000	117,804	2106,308
1	0,000	117,854	2106,812
1	0,000	117,904	2107,214
1	0,000	117,904	2107,718
1	0,000	117,954	2108,121
1	0,000	118,004	2108,524
1	0,000	118,004	2109,027
1	0,000	118,054	2109,430
1	0,000	118,105	2109,933
1	0,000	118,105	2110,336
1	0,000	118,155	2110,840
1	0,000	118,205	2111,343
1	0,000	118,205	2111,746
1	0,000	118,255	2112,149
1	0,000	118,306	2112,653
1	0,000	118,306	2113,055
1	0,000	118,356	2113,559
1	0,000	118,406	2113,962
1	0,000	118,406	2114,465
1	0,000	118,456	2114,969
1	0,000	118,506	2115,372
1	0,000	118,506	2115,875
1	0,000	118,556	2116,278
1	0,000	118,606	2116,782
1	0,000	118,606	2117,285
1	0,000	118,656	2117,688
1	0,000	118,706	2118,091
1	0,000	118,706	2118,594
1	0,000	118,756	2118,997
1	0,000	118,806	2119,501
1	0,000	118,806	2119,904
1	0,000	118,856	2120,508
1	0,000	118,906	2120,911
1	0,000	118,906	2121,313
1	0,000	118,957	2121,918
1	0,000	119,007	2122,321
1	0,000	119,007	2122,623
1	0,000	119,057	2123,227
1	0,000	119,106	2123,730
1	0,000	119,106	2124,133
1	0,000	119,157	2124,738
1	0,000	119,207	2125,140
1	0,000	119,207	2125,443
1	0,000	119,257	2126,047
1	0,000	119,307	2126,349
1	0,000	119,307	2126,953
1	0,000	119,357	2127,356
1	0,000	119,408	2127,960
1	0,000	119,408	2128,464
1	0,000	119,457	2128,766
1	0,000	119,508	2129,269
1	0,000	119,508	2129,773
1	0,000	119,558	2130,276
1	0,000	119,608	2130,679
1	0,000	119,608	2131,183
1	0,000	119,657	2131,686
1	0,000	119,708	2132,089
1	0,000	119,708	2132,593
1	0,000	119,758	2132,996
1	0,000	119,808	2133,499
1	0,000	119,808	2134,003
1	0,000	119,858	2134,406
1	0,000	119,908	2134,909
1	0,000	119,908	2135,312
1	0,000	119,958	2135,614
1	0,000	120,008	2136,118
1	0,000	120,008	2136,722
1	0,000	120,058	2137,225
1	0,000	120,108	2137,830
1	0,000	120,108	2138,232
1	0,000	120,158	2138,937
1	0,000	120,209	2139,340
1	0,000	120,209	2139,743
1	0,000	120,259	2140,247
1	0,000	120,309	2140,649
1	0,000	120,309	2141,153
1	0,000	120,359	2141,556
1	0,000	120,409	2142,059
1	0,000	120,409	2142,563
1	0,000	120,459	2142,966
1	0,000	120,509	2143,469
1	0,000	120,509	2143,973
1	0,000	120,559	2144,476
1	0,000	120,609	2144,879
1	0,000	120,609	2145,383
1	0,000	120,660	2145,987
1	0,000	120,710	2146,289
1	0,000	120,710	2146,893
1	0,000	120,761	2147,397
1	0,000	120,811	2147,900
1	0,000	120,811	2148,303
1	0,000	120,861	2148,807
1	0,000	120,911	2149,310
1	0,000	120,911	2149,713
1	0,000	120,961	2150,317
1	0,000	121,011	2150,720
1	0,000	121,011	2151,224
1	0,000	121,062	2151,727
1	0,000	121,062	2152,130
1	0,000	121,112	2152,634
1	0,000	121,162	2153,137
1	0,000	121,162	2153,641
1	0,000	121,212	2154,044
1	0,000	121,262	2154,547
1	0,000	121,262	2155,051
1	0,000	121,313	2155,554
1	0,000	121,362	2156,058
1	0,000	121,362	2156,662
1	0,000	121,413	2157,065
1	0,000	121,463	2157,468
1	0,000	121,463	2157,971
1	0,000	121,514	2158,575
1	0,000	121,564	2158,978
1	0,000	121,564	2159,482
1	0,000	121,613	2159,985
1	0,000	121,664	2160,590
1	0,000	121,664	2161,093
1	0,000	121,714	2161,496
1	0,000	121,765	2162,100
1	0,000	121,765	2162,604
1	0,000	121,815	2163,107
1	0,000	121,865	2163,510
1	0,000	121,865	2164,114
1	0,000	121,915	2164,618
1	0,000	121,965	2165,121
1	0,000	121,965	2165,726
1	0,000	122,015	2166,129
1	0,000	122,065	2166,531
1	0,000	122,065	2167,136
1	0,000	122,116	2167,538
1	0,000	122,166	2167,538
1	0,000	122,166	2168,344
1	0,000	122,216	2168,848
1	0,000	122,266	2169,351
1	0,000	122,266	2169,754
1	0,000	122,317	2170,157
1	0,000	122,367	2170,761
1	0,000	122,367	2171,164
1	0,000	122,417	2171,768
1	0,000	122,468	2172,171
1	0,000	122,468	2172,675
1	0,000	122,518	2173,279
1	0,000	122,569	2173,782
1	0,000	122,569	2174,185
1	0,000	122,619	2174,789
1	0,000	122,669	2175,192
1	0,000	122,669	2175,696
1	0,000	122,719	2176,199
1	0,000	122,770	2176,703
1	0,000	122,770	2177,206
1	0,000	122,819	2177,710
1	0,000	122,869	2178,214
1	0,000	122,869	2178,717
1	0,000	122,919	2179,221
1	0,000	122,970	2179,724
1	0,000	122,970	2180,328
1	0,000	123,020	2180,731
1	0,000	123,071	2181,235
1	0,000	123,071	2181,638
1	0,000	123,120	2182,141
1	0,000	123,170	2182,745
1	0,000	123,170	2183,249
1	0,000	123,220	2183,652
1	0,000	123,270	2184,155
1	0,000	123,270	2184,659
1	0,000	123,320	2185,162
1	0,000	123,371	2185,767
1	0,000	123,371	2186,270
1	0,000	123,420	2186,774
1	0,000	123,471	2187,378
1	0,000	123,471	2187,781
1	0,000	123,521	2188,284
1	0,000	123,571	2188,788
1	0,000	123,571	2189,291
1	0,000	123,621	2189,795
1	0,000	123,671	2190,298
1	0,000	123,671	2190,802
1	0,000	123,721	2191,306
1	0,000	123,771	2191,809
1	0,000	123,771	2192,313
1	0,000	123,821	2192,917
1	0,000	123,871	2193,723
1	0,000	123,871	2193,823
1	0,000	123,921	2194,327
1	0,000	123,971	2194,730
1	0,000	123,971	2195,233
1	0,000	124,022	2195,737
1	0,000	124,072	2196,240
1	0,000	124,072	2196,844
1	0,000	124,122	2197,348
1	0,000	124,171	2197,852
1	0,000	124,171	2198,355
1	0,000	124,222	2198,959
1	0,000	124,272	2199,362
1	0,000	124,272	2200,067
1	0,000	124,322	2200,470
1	0,000	124,372	2200,974
1	0,000	124,372	2201,477
1	0,000	124,422	2201,981
1	0,000	124,472	2202,484
1	0,000	124,472	2203,088
1	0,000	124,522	2203,592
1	0,000	124,572	2204,095
1	0,000	124,572	2204,599
1	0,000	124,622	2205,203
1	0,000	124,672	2205,707
1	0,000	124,672	2206,311
1	0,000	124,722	2206,714
1	0,000	124,772	2207,217
1	0,000	124,772	2207,822
1	0,000	124,822	2208,325
1	0,000	124,872	2208,929
1	0,000	124,872	2209,332
1	0,000	124,922	2209,836
1	0,000	124,972	2210,339
1	0,000	124,972	2210,944
1	0,000	125,023	2211,548
1	0,000	125,072	2211,951
1	0,000	125,072	2212,555
1	0,000	125,122	2213,058
1	0,000	125,172	2213,562
1	0,000	125,172	2214,166
1	0,000	125,222	2214,670
1	0,000	125,272	2215,173
1	0,000	125,272	2215,677
1	0,000	125,322	2216,281
1	0,000	125,373	2216,785
1	0,000	125,373	2217,389
1	0,000	125,423	2217,993
1	0,000	125,473	2218,497
1	0,000	125,473	2219,000
1	0,000	125,524	2219,604
1	0,000	125,574	2220,108
1	0,000	125,574	2220,712
1	0,000	125,624	2221,317
1	0,000	125,674	2221,719
1	0,000	125,674	2222,324
1	0,000	125,724	2222,726
1	0,000	125,775	2223,431
1	0,000	125,775	2223,935
1	0,000	125,824	2224,438
1	0,000	125,874	2224,942
1	0,000	125,874	2225,546
1	0,000	125,924	2226,151
1	0,000	125,974	2226,654
1	0,000	125,974	2227,158
1	0,000	126,024	2227,762
1	0,000	126,074	2228,265
1	0,000	126,074	2228,769
1	0,000	126,125	2229,373
1	0,000	126,174	2229,977
1	0,000	126,174	2230,380
1	0,000	126,225	2231,085
1	0,000	126,275	2231,589
1	0,000	126,275	2232,092
1	0,000	126,325	2232,697
1	0,000	126,325	2233,200
1	0,000	126,376	2233,704
1	0,000	126,426	2234,308
1	0,000	126,426	2234,811
1	0,000	126,476	2235,315
1	0,000	126,526	2235,919
1	0,000	126,526	2236,423
1	0,000	126,576	2236,926
1	0,000	126,626	2237,531
1	0,000	126,626	2238,135
1	0,000	126,677	2238,638
1	0,000	126,727	2239,142
1	0,000	126,727	2239,746
1	0,000	126,778	2240,250
1	0,000	126,827	2240,955
1	0,000	126,827	2241,458
1	0,000	126,878	2241,962
1	0,000	126,928	2242,566
1	0,000	126,928	2242,062
1	0,000	126,978	2243,976
1	0,000	127,028	2244,177
1	0,000	127,028	2244,681
1	0,000	127,079	2245,285
1	0,000	127,129	2245,789
1	0,000	127,129	2246,393
1	0,000	127,179	2246,896
1	0,000	127,229	2247,400
1	0,000	127,229	2248,004
1	0,000	127,280	2248,508
1	0,000	127,330	2249,011
1	0,000	127,330	2249,716
1	0,000	127,380	2250,220
1	0,000	127,430	2250,723
1	0,000	127,430	2251,328
1	0,000	127,480	2251,932
1	0,000	127,530	2252,435
1	0,000	127,530	2252,939
1	0,000	127,580	2253,543
1	0,000	127,630	2254,047
1	0,000	127,630	2254,651
1	0,000	127,680	2255,255
1	0,000	127,730	2255,759
1	0,000	127,730	2256,262
1	0,000	127,780	2256,766
1	0,000	127,830	2257,370
1	0,000	127,830	2257,974
1	0,000	127,880	2258,578
1	0,000	127,930	2258,981
1	0,000	127,930	2259,586
1	0,000	127,980	2260,190
1	0,000	128,031	2260,693
1	0,000	128,031	2261,197
1	0,000	128,081	2261,801
1	0,000	128,131	2262,405
1	0,000	128,131	2263,010
1	0,000	128,182	2263,614
1	0,000	128,232	2264,017
1	0,000	128,232	2264,722
1	0,000	128,283	2265,225
1	0,000	128,332	2265,729
1	0,000	128,332	2266,333
1	0,000	128,382	2266,837
1	0,000	128,433	2267,340
1	0,000	128,433	2268,045
1	0,000	128,483	2268,549
1	0,000	128,534	2269,153
1	0,000	128,534	2269,757
1	0,000	128,583	2270,261
1	0,000	128,634	2270,865
1	0,000	128,634	2271,368
1	0,000	128,684	2271,973
1	0,000	128,734	2272,577
1	0,000	128,734	2273,181
1	0,000	128,784	2273,685
1	0,000	128,834	2274,289
1	0,000	128,834	2274,792
1	0,000	128,884	2275,497
1	0,000	128,935	2276,001
1	0,000	128,935	2276,605
1	0,000	128,985	2277,109
1	0,000	129,036	2277,814
1	0,000	129,036	2278,317
1	0,000	129,085	2278,922
1	0,000	129,136	2279,526
1	0,000	129,136	2280,231
1	0,000	129,186	2280,835
1	0,000	129,236	2281,439
1	0,000	129,236	2281,943
1	0,000	129,286	2282,648
1	0,000	129,336	2283,051
1	0,000	129,336	2283,655
1	0,000	129,387	2284,158
1	0,000	129,437	2284,763
1	0,000	129,437	2285,367
1	0,000	129,487	2285,971
1	0,000	129,537	2286,475
1	0,000	129,537	2287,180
1	0,000	129,587	2287,683
1	0,000	129,637	2288,287
1	0,000	129,637	2288,892
1	0,000	129,687	2289,496
1	0,000	129,737	2290,100
1	0,000	129,737	2290,704
1	0,000	129,787	2291,409
1	0,000	129,837	2291,913
1	0,000	129,837	2292,416
1	0,000	129,888	2293,121
1	0,000	129,938	2293,625
1	0,000	129,938	2294,229
1	0,000	129,988	2294,733
1	0,000	130,039	2295,337
1	0,000	130,039	2295,941
1	0,000	130,089	2296,445
1	0,000	130,139	2297,150
1	0,000	130,139	2297,754
1	0,000	130,189	2298,257
1	0,000	130,239	2298,862
1	0,000	130,239	2299,466
1	0,000	130,289	2300,070
1	0,000	130,340	2300,574
1	0,000	130,340	2301,178
1	0,000	130,389	2301,782
1	0,000	130,439	2302,386
1	0,000	130,439	2302,991
1	0,000	130,490	2303,494
1	0,000	130,540	2304,099
1	0,000	130,540	2304,703
1	0,000	130,590	2305,408
1	0,000	130,640	2305,911
1	0,000	130,640	2306,516
1	0,000	130,690	2307,120
1	0,000	130,740	2307,724
1	0,000	130,740	2308,328
1	0,000	130,790	2309,033
1	0,000	130,839	2309,637
1	0,000	130,839	2310,040
1	0,000	130,890	2310,745
1	0,000	130,940	2311,349
1	0,000	130,940	2311,954
1	0,000	130,990	2312,558
1	0,000	130,990	2313,263
1	0,000	131,040	2313,766
1	0,000	131,090	2314,371
1	0,000	131,140	2315,076
1	0,000	131,140	2315,579
1	0,000	131,190	2316,183
1	0,000	131,190	2316,888
1	0,000	131,241	2317,493
1	0,000	131,291	2317,996
1	0,000	131,291	2318,802
1	0,000	131,341	2319,205
1	0,000	131,391	2319,910
1	0,000	131,391	2320,514
1	0,000	131,441	2321,118
1	0,000	131,492	2321,722
1	0,000	131,492	2322,327
1	0,000	131,542	2322,729
1	0,000	131,592	2323,535
1	0,000	131,592	2324,139
1	0,000	131,643	2324,744
1	0,000	131,693	2325,449
1	0,000	131,693	2326,053
1	0,000	131,743	2326,657
1	0,000	131,793	2327,261
1	0,000	131,793	2327,866
1	0,000	131,843	2328,470
1	0,000	131,893	2329,074
1	0,000	131,893	2329,477
1	0,000	131,943	2330,283
1	0,000	131,992	2330,887
1	0,000	131,992	2331,390
1	0,000	132,043	2331,995
1	0,000	132,093	2332,700
1	0,000	132,093	2333,203
1	0,000	132,143	2333,908
1	0,000	132,194	2334,613
1	0,000	132,194	2335,016
1	0,000	132,244	2335,822
1	0,000	132,294	2336,526
1	0,000	132,294	2336,929
1	0,000	132,344	2337,534
1	0,000	132,394	2338,138
1	0,000	132,394	2338,742
1	0,000	132,445	2339,346
1	0,000	132,495	2339,951
1	0,000	132,495	2340,555
1	0,000	132,544	2341,159
1	0,000	132,595	2341,864
1	0,000	132,595	2342,468
1	0,000	132,645	2343,073
1	0,000	132,696	2343,677
1	0,000	132,696	2344,281
1	0,000	132,746	2344,885
1	0,000	132,796	2345,490
1	0,000	132,796	2346,094
1	0,000	132,846	2346,799
1	0,000	132,896	2347,302
1	0,000	132,896	2347,906
1	0,000	132,947	2348,611
1	0,000	132,997	2349,216
1	0,000	132,997	2349,820
1	0,000	133,047	2350,424
1	0,000	133,096	2351,129
1	0,000	133,096	2351,633
1	0,000	133,147	2352,338
1	0,000	133,197	2352,942
1	0,000	133,197	2353,445
1	0,000	133,247	2354,150
1	0,000	133,297	2354,855
1	0,000	133,297	2355,460
1	0,000	133,348	2356,064
1	0,000	133,397	2356,668
1	0,000	133,397	2357,373
1	0,000	133,448	2358,078
1	0,000	133,498	2358,481
1	0,000	133,498	2359,186
1	0,000	133,549	2359,891
1	0,000	133,599	2360,596
1	0,000	133,599	2360,999
1	0,000	133,650	2361,804
1	0,000	133,700	2362,308
1	0,000	133,700	2362,811
1	0,000	133,751	2363,516
1	0,000	133,801	2364,120
1	0,000	133,801	2364,725
1	0,000	133,851	2365,530
1	0,000	133,900	2366,034
1	0,000	133,900	2366,840
1	0,000	133,951	2367,343
1	0,000	134,001	2368,149
1	0,000	134,001	2368,552
1	0,000	134,052	2369,156
1	0,000	134,102	2369,861
1	0,000	134,102	2370,566
1	0,000	134,152	2371,069
1	0,000	134,202	2371,674
1	0,000	134,202	2372,379
1	0,000	134,253	2372,983
1	0,000	134,303	2373,587
1	0,000	134,303	2374,292
1	0,000	134,353	2374,997
1	0,000	134,403	2375,601
1	0,000	134,403	2376,205
1	0,000	134,453	2376,910
1	0,000	134,503	2377,515
1	0,000	134,503	2378,220
1	0,000	134,553	2378,824
1	0,000	134,603	2379,428
1	0,000	134,603	2380,133
1	0,000	134,653	2380,737
1	0,000	134,703	2381,442
1	0,000	134,703	2382,047
1	0,000	134,752	2382,651
1	0,000	134,803	2383,356
1	0,000	134,803	2384,061
1	0,000	134,853	2384,967
1	0,000	134,903	2385,269
1	0,000	134,903	2385,974
1	0,000	134,953	2386,679
1	0,000	135,003	2387,485
1	0,000	135,003	2388,089
1	0,000	135,053	2388,995
1	0,000	135,103	2389,197
1	0,000	135,103	2389,801
1	0,000	135,153	2390,506
1	0,000	135,203	2391,110
1	0,000	135,203	2391,815
1	0,000	135,253	2392,419
1	0,000	135,303	2393,124
1	0,000	135,303	2393,729
1	0,000	135,353	2394,434
1	0,000	135,403	2395,139
1	0,000	135,403	2395,743
1	0,000	135,453	2396,448
1	0,000	135,503	2396,951
1	0,000	135,503	2397,556
1	0,000	135,553	2398,260
1	0,000	135,603	2398,865
1	0,000	135,603	2399,570
1	0,000	135,653	2400,073
1	0,000	135,703	2400,778
1	0,000	135,703	2401,382
1	0,000	135,753	2402,087
1	0,000	135,803	2402,792
1	0,000	135,803	2403,497
1	0,000	135,854	2404,102
1	0,000	135,903	2404,807
1	0,000	135,903	2405,411
1	0,000	135,953	2406,116
1	0,000	136,004	2406,720
1	0,000	136,004	2407,425
1	0,000	136,054	2408,130
1	0,000	136,104	2408,734
1	0,000	136,104	2409,439
1	0,000	136,155	2410,043
1	0,000	136,155	2410,748
1	0,000	136,205	2411,353
1	0,000	136,254	2411,856
1	0,000	136,254	2412,662
1	0,000	136,305	2413,367
1	0,000	136,355	2413,971
1	0,000	136,355	2414,676
1	0,000	136,406	2415,381
1	0,000	136,456	2415,985
1	0,000	136,456	2416,690
1	0,000	136,506	2417,294
1	0,000	136,556	2417,999
1	0,000	136,556	2418,704
1	0,000	136,606	2419,208
1	0,000	136,656	2419,812
1	0,000	136,656	2420,618
1	0,000	136,707	2421,222
1	0,000	136,757	2421,927
1	0,000	136,757	2422,531
1	0,000	136,807	2423,135
1	0,000	136,858	2423,740
1	0,000	136,858	2424,445
1	0,000	136,908	2425,150
1	0,000	136,958	2425,754
1	0,000	136,958	2426,459
1	0,000	137,008	2427,063
1	0,000	137,057	2427,768
1	0,000	137,057	2428,574
1	0,000	137,108	2429,077
1	0,000	137,158	2429,782
1	0,000	137,158	2430,487
1	0,000	137,208	2430,991
1	0,000	137,258	2431,998
1	0,000	137,258	2432,300
1	0,000	137,308	2433,005
1	0,000	137,358	2433,710
1	0,000	137,358	2434,314
1	0,000	137,408	2434,818
1	0,000	137,458	2435,724
1	0,000	137,458	2436,127
1	0,000	137,508	2436,932
1	0,000	137,558	2437,436
1	0,000	137,558	2438,242
1	0,000	137,608	2439,047
1	0,000	137,658	2439,752
1	0,000	137,658	2440,256
1	0,000	137,708	2440,759
1	0,000	137,758	2441,867
1	0,000	137,758	2442,371
1	0,000	137,808	2443,076
1	0,000	137,858	2443,680
1	0,000	137,858	2444,284
1	0,000	137,909	2445,090
1	0,000	137,959	2445,694
1	0,000	137,959	2446,298
1	0,000	138,009	2447,205
1	0,000	138,059	2447,708
1	0,000	138,059	2448,413
1	0,000	138,109	2449,017
1	0,000	138,159	2449,722
1	0,000	138,159	2450,327
1	0,000	138,210	2451,031
1	0,000	138,259	2451,938
1	0,000	138,259	2452,542
1	0,000	138,309	2453,146
1	0,000	138,359	2453,851
1	0,000	138,359	2454,355
1	0,000	138,409	2455,161
1	0,000	138,459	2455,865
1	0,000	138,459	2456,570
1	0,000	138,509	2457,175
1	0,000	138,559	2457,980
1	0,000	138,559	2458,685
1	0,000	138,609	2459,390
1	0,000	138,660	2459,995
1	0,000	138,660	2460,699
1	0,000	138,710	2461,304
1	0,000	138,760	2462,009
1	0,000	138,760	2462,411
1	0,000	138,810	2463,419
1	0,000	138,861	2464,023
1	0,000	138,861	2464,728
1	0,000	138,911	2465,332
1	0,000	138,961	2466,037
1	0,000	138,961	2466,641
1	0,000	139,012	2467,447
1	0,000	139,061	2468,051
1	0,000	139,061	2468,756
1	0,000	139,112	2469,461
1	0,000	139,162	2470,065
1	0,000	139,162	2470,770
1	0,000	139,212	2471,375
1	0,000	139,262	2472,079
1	0,000	139,262	2472,482
1	0,000	139,312	2473,489
1	0,000	139,362	2474,094
1	0,000	139,362	2474,899
1	0,000	139,412	2475,403
1	0,000	139,462	2476,208
1	0,000	139,462	2476,913
1	0,000	139,512	2477,618
1	0,000	139,562	2478,323
1	0,000	139,562	2478,928
1	0,000	139,611	2479,834
1	0,000	139,662	2480,438
1	0,000	139,662	2480,942
1	0,000	139,712	2481,647
1	0,000	139,762	2482,352
1	0,000	139,762	2482,956
1	0,000	139,812	2483,963
1	0,000	139,862	2484,467
1	0,000	139,862	2484,970
1	0,000	139,909	2485,474
1	0,000	139,946	2485,977
1	0,000	139,946	2486,078
1	0,000	139,974	2486,380
1	0,000	139,992	2486,380
1	0,000	139,992	2486,581
1	0,000	139,999	2486,481
