Col.n° Rot(deg) Lin(mm) CHR(um)
1	0,000	80,090	1893,814
1	0,000	80,090	1893,814
1	0,000	80,137	1893,713
1	0,000	80,187	1893,814
1	0,000	80,187	1893,613
1	0,000	80,237	1893,613
1	0,000	80,288	1893,814
1	0,000	80,288	1893,713
1	0,000	80,338	1893,512
1	0,000	80,388	1893,411
1	0,000	80,388	1893,411
1	0,000	80,438	1893,311
1	0,000	80,489	1893,311
1	0,000	80,489	1893,311
1	0,000	80,539	1893,311
1	0,000	80,589	1893,311
1	0,000	80,589	1893,512
1	0,000	80,639	1893,210
1	0,000	80,689	1893,109
1	0,000	80,689	1893,109
1	0,000	80,740	1893,109
1	0,000	80,790	1893,008
1	0,000	80,790	1893,008
1	0,000	80,840	1893,008
1	0,000	80,890	1892,908
1	0,000	80,890	1893,210
1	0,000	80,941	1893,109
1	0,000	80,990	1892,908
1	0,000	80,990	1893,008
1	0,000	81,041	1893,008
1	0,000	81,091	1892,807
1	0,000	81,091	1892,908
1	0,000	81,141	1892,807
1	0,000	81,141	1892,807
1	0,000	81,191	1892,706
1	0,000	81,241	1892,807
1	0,000	81,292	1892,706
1	0,000	81,292	1892,706
1	0,000	81,342	1892,505
1	0,000	81,342	1892,606
1	0,000	81,392	1892,807
1	0,000	81,442	1892,606
1	0,000	81,442	1892,505
1	0,000	81,492	1892,505
1	0,000	81,542	1892,505
1	0,000	81,542	1892,404
1	0,000	81,592	1892,606
1	0,000	81,643	1892,505
1	0,000	81,643	1892,404
1	0,000	81,693	1892,505
1	0,000	81,743	1892,404
1	0,000	81,743	1892,404
1	0,000	81,793	1892,303
1	0,000	81,844	1892,404
1	0,000	81,844	1892,203
1	0,000	81,894	1892,102
1	0,000	81,944	1892,303
1	0,000	81,944	1892,102
1	0,000	81,994	1891,901
1	0,000	82,044	1892,203
1	0,000	82,044	1892,102
1	0,000	82,094	1892,102
1	0,000	82,144	1892,102
1	0,000	82,144	1892,001
1	0,000	82,195	1892,001
1	0,000	82,245	1892,001
1	0,000	82,245	1892,001
1	0,000	82,295	1892,001
1	0,000	82,345	1891,699
1	0,000	82,345	1892,001
1	0,000	82,395	1892,303
1	0,000	82,445	1891,599
1	0,000	82,445	1892,001
1	0,000	82,495	1892,203
1	0,000	82,546	1891,901
1	0,000	82,546	1892,001
1	0,000	82,596	1891,901
1	0,000	82,646	1892,102
1	0,000	82,646	1891,901
1	0,000	82,697	1891,800
1	0,000	82,746	1891,800
1	0,000	82,746	1891,800
1	0,000	82,796	1891,800
1	0,000	82,846	1891,901
1	0,000	82,846	1891,800
1	0,000	82,896	1891,800
1	0,000	82,947	1891,901
1	0,000	82,947	1891,800
1	0,000	82,996	1892,001
1	0,000	83,047	1891,800
1	0,000	83,047	1891,901
1	0,000	83,097	1891,800
1	0,000	83,146	1891,699
1	0,000	83,146	1891,498
1	0,000	83,197	1891,699
1	0,000	83,247	1891,599
1	0,000	83,247	1891,599
1	0,000	83,297	1891,599
1	0,000	83,347	1891,599
1	0,000	83,347	1891,599
1	0,000	83,397	1891,599
1	0,000	83,447	1891,599
1	0,000	83,447	1891,599
1	0,000	83,497	1891,599
1	0,000	83,547	1891,599
1	0,000	83,547	1891,599
1	0,000	83,598	1891,498
1	0,000	83,648	1891,397
1	0,000	83,648	1891,699
1	0,000	83,698	1891,699
1	0,000	83,748	1891,699
1	0,000	83,748	1891,599
1	0,000	83,798	1891,599
1	0,000	83,849	1891,599
1	0,000	83,849	1891,599
1	0,000	83,899	1891,599
1	0,000	83,949	1891,498
1	0,000	83,949	1891,599
1	0,000	84,000	1891,599
1	0,000	84,050	1891,599
1	0,000	84,050	1891,699
1	0,000	84,100	1891,599
1	0,000	84,150	1891,498
1	0,000	84,150	1891,599
1	0,000	84,200	1891,599
1	0,000	84,250	1891,699
1	0,000	84,250	1891,699
1	0,000	84,300	1891,498
1	0,000	84,350	1891,498
1	0,000	84,350	1891,599
1	0,000	84,400	1891,599
1	0,000	84,450	1891,599
1	0,000	84,450	1891,599
1	0,000	84,500	1891,599
1	0,000	84,550	1891,498
1	0,000	84,550	1891,599
1	0,000	84,600	1891,599
1	0,000	84,650	1891,599
1	0,000	84,650	1891,599
1	0,000	84,700	1891,599
1	0,000	84,751	1891,699
1	0,000	84,751	1891,699
1	0,000	84,801	1891,599
1	0,000	84,851	1891,699
1	0,000	84,851	1891,599
1	0,000	84,901	1891,498
1	0,000	84,951	1891,699
1	0,000	84,951	1891,699
1	0,000	85,001	1891,800
1	0,000	85,052	1891,800
1	0,000	85,052	1891,800
1	0,000	85,101	1891,699
1	0,000	85,151	1891,699
1	0,000	85,151	1891,699
1	0,000	85,201	1891,800
1	0,000	85,251	1891,699
1	0,000	85,251	1891,699
1	0,000	85,302	1891,699
1	0,000	85,352	1891,699
1	0,000	85,352	1891,800
1	0,000	85,402	1891,699
1	0,000	85,452	1891,901
1	0,000	85,452	1892,001
1	0,000	85,503	1891,901
1	0,000	85,553	1891,800
1	0,000	85,553	1892,001
1	0,000	85,603	1891,800
1	0,000	85,653	1891,901
1	0,000	85,653	1891,800
1	0,000	85,703	1892,001
1	0,000	85,753	1891,800
1	0,000	85,753	1891,901
1	0,000	85,803	1892,001
1	0,000	85,853	1892,001
1	0,000	85,853	1892,001
1	0,000	85,903	1892,102
1	0,000	85,953	1892,102
1	0,000	85,953	1892,001
1	0,000	86,004	1892,102
1	0,000	86,053	1892,001
1	0,000	86,053	1892,203
1	0,000	86,103	1892,203
1	0,000	86,154	1892,303
1	0,000	86,154	1892,001
1	0,000	86,204	1892,102
1	0,000	86,254	1892,203
1	0,000	86,254	1892,203
1	0,000	86,304	1892,203
1	0,000	86,354	1892,203
1	0,000	86,354	1892,203
1	0,000	86,404	1892,203
1	0,000	86,454	1892,203
1	0,000	86,454	1892,404
1	0,000	86,504	1892,303
1	0,000	86,554	1892,303
1	0,000	86,554	1892,404
1	0,000	86,604	1892,404
1	0,000	86,654	1892,303
1	0,000	86,654	1892,203
1	0,000	86,704	1892,303
1	0,000	86,754	1892,404
1	0,000	86,754	1892,303
1	0,000	86,805	1892,404
1	0,000	86,805	1892,606
1	0,000	86,855	1892,606
1	0,000	86,905	1892,404
1	0,000	86,905	1892,606
1	0,000	86,955	1892,706
1	0,000	87,006	1892,706
1	0,000	87,006	1892,706
1	0,000	87,055	1892,706
1	0,000	87,106	1892,807
1	0,000	87,106	1892,807
1	0,000	87,155	1893,008
1	0,000	87,206	1892,908
1	0,000	87,206	1893,008
1	0,000	87,256	1892,908
1	0,000	87,306	1893,008
1	0,000	87,306	1893,008
1	0,000	87,357	1893,109
1	0,000	87,407	1893,008
1	0,000	87,407	1892,908
1	0,000	87,458	1893,008
1	0,000	87,507	1892,908
1	0,000	87,507	1893,008
1	0,000	87,557	1893,210
1	0,000	87,607	1893,210
1	0,000	87,607	1893,210
1	0,000	87,657	1893,411
1	0,000	87,707	1893,512
1	0,000	87,707	1893,411
1	0,000	87,757	1893,411
1	0,000	87,808	1893,512
1	0,000	87,808	1893,411
1	0,000	87,858	1893,512
1	0,000	87,907	1893,512
1	0,000	87,907	1893,512
1	0,000	87,957	1893,613
1	0,000	88,008	1893,613
1	0,000	88,008	1893,713
1	0,000	88,058	1893,814
1	0,000	88,108	1893,713
1	0,000	88,108	1893,814
1	0,000	88,159	1893,915
1	0,000	88,209	1894,016
1	0,000	88,209	1894,116
1	0,000	88,259	1894,116
1	0,000	88,309	1894,318
1	0,000	88,309	1894,016
1	0,000	88,359	1894,116
1	0,000	88,409	1894,318
1	0,000	88,409	1894,318
1	0,000	88,459	1894,318
1	0,000	88,509	1894,318
1	0,000	88,509	1894,318
1	0,000	88,559	1894,418
1	0,000	88,609	1894,418
1	0,000	88,609	1894,620
1	0,000	88,660	1894,620
1	0,000	88,710	1894,620
1	0,000	88,710	1894,519
1	0,000	88,760	1895,123
1	0,000	88,811	1894,821
1	0,000	88,811	1894,922
1	0,000	88,860	1894,821
1	0,000	88,911	1894,922
1	0,000	88,911	1894,922
1	0,000	88,960	1894,922
1	0,000	89,011	1894,922
1	0,000	89,011	1895,023
1	0,000	89,060	1895,123
1	0,000	89,111	1895,224
1	0,000	89,111	1895,224
1	0,000	89,160	1895,325
1	0,000	89,211	1895,425
1	0,000	89,211	1895,425
1	0,000	89,261	1895,425
1	0,000	89,311	1895,627
1	0,000	89,311	1895,627
1	0,000	89,362	1895,627
1	0,000	89,412	1895,728
1	0,000	89,412	1895,728
1	0,000	89,461	1895,929
1	0,000	89,512	1896,030
1	0,000	89,512	1895,929
1	0,000	89,562	1895,929
1	0,000	89,612	1895,929
1	0,000	89,612	1896,030
1	0,000	89,663	1896,130
1	0,000	89,713	1896,130
1	0,000	89,713	1896,231
1	0,000	89,762	1896,231
1	0,000	89,812	1896,231
1	0,000	89,812	1896,332
1	0,000	89,862	1896,533
1	0,000	89,913	1896,533
1	0,000	89,913	1896,533
1	0,000	89,963	1896,634
1	0,000	90,013	1896,735
1	0,000	90,013	1896,936
1	0,000	90,063	1896,332
1	0,000	90,114	1896,936
1	0,000	90,114	1897,037
1	0,000	90,164	1897,137
1	0,000	90,214	1897,137
1	0,000	90,214	1897,037
1	0,000	90,264	1897,037
1	0,000	90,314	1897,339
1	0,000	90,314	1897,339
1	0,000	90,364	1897,137
1	0,000	90,414	1897,339
1	0,000	90,414	1897,943
1	0,000	90,464	1897,440
1	0,000	90,514	1897,641
1	0,000	90,514	1897,742
1	0,000	90,565	1897,943
1	0,000	90,615	1897,842
1	0,000	90,615	1897,943
1	0,000	90,665	1898,044
1	0,000	90,715	1898,145
1	0,000	90,715	1898,245
1	0,000	90,765	1898,245
1	0,000	90,815	1898,346
1	0,000	90,815	1898,547
1	0,000	90,865	1898,547
1	0,000	90,916	1898,447
1	0,000	90,916	1898,547
1	0,000	90,966	1898,749
1	0,000	91,016	1898,749
1	0,000	91,016	1898,849
1	0,000	91,066	1898,849
1	0,000	91,117	1899,051
1	0,000	91,117	1898,950
1	0,000	91,167	1899,152
1	0,000	91,218	1899,252
1	0,000	91,218	1899,252
1	0,000	91,268	1899,454
1	0,000	91,318	1899,454
1	0,000	91,318	1899,554
1	0,000	91,368	1899,554
1	0,000	91,418	1899,655
1	0,000	91,418	1899,756
1	0,000	91,468	1899,857
1	0,000	91,517	1899,857
1	0,000	91,517	1899,957
1	0,000	91,568	1900,058
1	0,000	91,618	1900,159
1	0,000	91,618	1900,159
1	0,000	91,668	1900,259
1	0,000	91,718	1900,259
1	0,000	91,718	1900,461
1	0,000	91,768	1900,360
1	0,000	91,818	1900,562
1	0,000	91,818	1900,562
1	0,000	91,869	1900,763
1	0,000	91,919	1900,763
1	0,000	91,919	1900,763
1	0,000	91,969	1900,864
1	0,000	91,969	1900,964
1	0,000	92,019	1901,065
1	0,000	92,069	1901,166
1	0,000	92,069	1901,266
1	0,000	92,120	1901,367
1	0,000	92,170	1901,367
1	0,000	92,170	1901,468
1	0,000	92,220	1901,569
1	0,000	92,270	1901,669
1	0,000	92,270	1901,770
1	0,000	92,321	1901,871
1	0,000	92,371	1901,971
1	0,000	92,371	1902,072
1	0,000	92,422	1902,173
1	0,000	92,472	1902,274
1	0,000	92,472	1902,274
1	0,000	92,523	1902,475
1	0,000	92,573	1902,576
1	0,000	92,573	1902,676
1	0,000	92,623	1902,878
1	0,000	92,673	1902,878
1	0,000	92,673	1903,079
1	0,000	92,723	1903,079
1	0,000	92,773	1903,180
1	0,000	92,773	1903,180
1	0,000	92,824	1903,381
1	0,000	92,874	1903,583
1	0,000	92,874	1903,583
1	0,000	92,924	1903,683
1	0,000	92,974	1903,784
1	0,000	92,974	1903,885
1	0,000	93,023	1903,986
1	0,000	93,074	1904,086
1	0,000	93,074	1904,187
1	0,000	93,124	1904,288
1	0,000	93,174	1904,388
1	0,000	93,174	1904,489
1	0,000	93,224	1904,590
1	0,000	93,274	1904,691
1	0,000	93,274	1904,791
1	0,000	93,324	1904,791
1	0,000	93,374	1904,993
1	0,000	93,374	1905,093
1	0,000	93,425	1905,194
1	0,000	93,475	1905,194
1	0,000	93,475	1905,295
1	0,000	93,525	1905,396
1	0,000	93,576	1905,396
1	0,000	93,576	1905,597
1	0,000	93,626	1905,698
1	0,000	93,676	1905,798
1	0,000	93,676	1905,798
1	0,000	93,726	1905,899
1	0,000	93,776	1906,100
1	0,000	93,776	1906,201
1	0,000	93,826	1906,302
1	0,000	93,876	1906,403
1	0,000	93,876	1906,604
1	0,000	93,927	1906,705
1	0,000	93,977	1906,705
1	0,000	93,977	1906,805
1	0,000	94,026	1907,007
1	0,000	94,077	1907,108
1	0,000	94,077	1907,208
1	0,000	94,127	1907,410
1	0,000	94,177	1907,510
1	0,000	94,177	1907,611
1	0,000	94,227	1907,712
1	0,000	94,278	1907,913
1	0,000	94,278	1907,913
1	0,000	94,328	1908,014
1	0,000	94,378	1908,115
1	0,000	94,378	1908,215
1	0,000	94,429	1908,316
1	0,000	94,479	1908,417
1	0,000	94,479	1908,517
1	0,000	94,529	1908,719
1	0,000	94,579	1908,820
1	0,000	94,579	1908,920
1	0,000	94,630	1909,021
1	0,000	94,680	1909,122
1	0,000	94,680	1909,222
1	0,000	94,730	1909,424
1	0,000	94,780	1909,625
1	0,000	94,780	1909,525
1	0,000	94,830	1909,726
1	0,000	94,880	1909,827
1	0,000	94,880	1910,129
1	0,000	94,931	1910,028
1	0,000	94,981	1910,229
1	0,000	94,981	1910,431
1	0,000	95,031	1910,532
1	0,000	95,081	1910,632
1	0,000	95,081	1910,733
1	0,000	95,131	1910,934
1	0,000	95,181	1911,136
1	0,000	95,181	1911,136
1	0,000	95,232	1911,337
1	0,000	95,282	1911,438
1	0,000	95,282	1911,539
1	0,000	95,332	1911,740
1	0,000	95,383	1911,740
1	0,000	95,383	1911,942
1	0,000	95,432	1912,042
1	0,000	95,482	1912,244
1	0,000	95,482	1912,344
1	0,000	95,532	1912,546
1	0,000	95,582	1912,747
1	0,000	95,582	1912,848
1	0,000	95,632	1912,949
1	0,000	95,682	1913,049
1	0,000	95,682	1913,150
1	0,000	95,733	1913,351
1	0,000	95,783	1913,553
1	0,000	95,783	1913,553
1	0,000	95,834	1913,654
1	0,000	95,834	1913,855
1	0,000	95,884	1914,056
1	0,000	95,934	1914,258
1	0,000	95,934	1914,258
1	0,000	95,985	1914,560
1	0,000	96,035	1914,661
1	0,000	96,035	1914,761
1	0,000	96,085	1914,661
1	0,000	96,135	1914,862
1	0,000	96,135	1915,063
1	0,000	96,185	1915,164
1	0,000	96,236	1915,265
1	0,000	96,236	1915,466
1	0,000	96,286	1915,567
1	0,000	96,337	1915,668
1	0,000	96,337	1915,869
1	0,000	96,386	1915,970
1	0,000	96,437	1916,071
1	0,000	96,437	1916,272
1	0,000	96,487	1916,373
1	0,000	96,536	1916,473
1	0,000	96,536	1916,776
1	0,000	96,587	1916,876
1	0,000	96,637	1916,876
1	0,000	96,637	1917,178
1	0,000	96,687	1917,279
1	0,000	96,737	1917,480
1	0,000	96,737	1917,581
1	0,000	96,787	1917,783
1	0,000	96,837	1917,984
1	0,000	96,837	1917,984
1	0,000	96,888	1918,185
1	0,000	96,938	1918,387
1	0,000	96,938	1918,588
1	0,000	96,988	1918,588
1	0,000	97,038	1918,689
1	0,000	97,038	1918,991
1	0,000	97,088	1918,991
1	0,000	97,138	1919,092
1	0,000	97,138	1919,293
1	0,000	97,188	1919,495
1	0,000	97,238	1919,595
1	0,000	97,238	1919,797
1	0,000	97,289	1919,897
1	0,000	97,339	1920,099
1	0,000	97,339	1920,200
1	0,000	97,389	1920,602
1	0,000	97,439	1920,602
1	0,000	97,439	1920,703
1	0,000	97,489	1920,905
1	0,000	97,538	1921,106
1	0,000	97,538	1921,307
1	0,000	97,589	1921,408
1	0,000	97,639	1921,609
1	0,000	97,639	1921,811
1	0,000	97,690	1921,912
1	0,000	97,740	1922,113
1	0,000	97,740	1922,314
1	0,000	97,790	1922,516
1	0,000	97,840	1922,617
1	0,000	97,840	1922,818
1	0,000	97,890	1923,019
1	0,000	97,940	1923,019
1	0,000	97,940	1923,221
1	0,000	97,990	1923,523
1	0,000	98,040	1923,724
1	0,000	98,040	1923,825
1	0,000	98,091	1923,825
1	0,000	98,141	1924,026
1	0,000	98,141	1924,329
1	0,000	98,191	1924,429
1	0,000	98,241	1924,631
1	0,000	98,241	1924,832
1	0,000	98,291	1925,034
1	0,000	98,341	1925,134
1	0,000	98,341	1925,336
1	0,000	98,391	1925,537
1	0,000	98,441	1925,739
1	0,000	98,441	1925,940
1	0,000	98,492	1926,041
1	0,000	98,541	1926,242
1	0,000	98,541	1926,443
1	0,000	98,592	1926,544
1	0,000	98,641	1926,846
1	0,000	98,641	1926,846
1	0,000	98,692	1927,148
1	0,000	98,742	1927,148
1	0,000	98,742	1927,451
1	0,000	98,792	1927,652
1	0,000	98,842	1927,853
1	0,000	98,842	1927,954
1	0,000	98,893	1928,156
1	0,000	98,943	1928,156
1	0,000	98,943	1928,458
1	0,000	98,993	1928,659
1	0,000	99,044	1928,860
1	0,000	99,044	1928,961
1	0,000	99,094	1929,163
1	0,000	99,144	1929,364
1	0,000	99,144	1929,666
1	0,000	99,194	1929,868
1	0,000	99,245	1929,968
1	0,000	99,245	1930,170
1	0,000	99,295	1930,270
1	0,000	99,345	1930,472
1	0,000	99,345	1930,673
1	0,000	99,395	1930,875
1	0,000	99,446	1930,975
1	0,000	99,446	1931,277
1	0,000	99,496	1931,378
1	0,000	99,546	1931,580
1	0,000	99,546	1931,680
1	0,000	99,596	1931,882
1	0,000	99,646	1931,982
1	0,000	99,646	1932,385
1	0,000	99,696	1932,486
1	0,000	99,746	1932,788
1	0,000	99,746	1932,788
1	0,000	99,796	1932,990
1	0,000	99,846	1933,191
1	0,000	99,846	1933,292
1	0,000	99,896	1933,594
1	0,000	99,947	1933,694
1	0,000	99,947	1933,896
1	0,000	99,997	1934,097
1	0,000	100,047	1934,299
1	0,000	100,047	1934,500
1	0,000	100,098	1934,702
1	0,000	100,147	1934,903
1	0,000	100,147	1935,104
1	0,000	100,197	1935,306
1	0,000	100,248	1935,507
1	0,000	100,248	1935,709
1	0,000	100,297	1935,910
1	0,000	100,347	1936,111
1	0,000	100,347	1936,313
1	0,000	100,398	1936,414
1	0,000	100,447	1936,615
1	0,000	100,447	1936,816
1	0,000	100,497	1937,119
1	0,000	100,547	1937,320
1	0,000	100,547	1937,622
1	0,000	100,597	1937,723
1	0,000	100,648	1937,924
1	0,000	100,648	1938,226
1	0,000	100,697	1938,428
1	0,000	100,697	1938,528
1	0,000	100,748	1938,730
1	0,000	100,798	1939,032
1	0,000	100,798	1939,233
1	0,000	100,848	1939,334
1	0,000	100,898	1939,636
1	0,000	100,898	1939,737
1	0,000	100,948	1940,039
1	0,000	100,999	1940,240
1	0,000	100,999	1940,442
1	0,000	101,049	1940,643
1	0,000	101,099	1940,845
1	0,000	101,099	1941,046
1	0,000	101,149	1941,248
1	0,000	101,199	1941,650
1	0,000	101,199	1941,751
1	0,000	101,249	1941,953
1	0,000	101,299	1942,154
1	0,000	101,299	1942,355
1	0,000	101,349	1942,557
1	0,000	101,400	1942,859
1	0,000	101,400	1943,060
1	0,000	101,450	1943,161
1	0,000	101,500	1943,463
1	0,000	101,500	1943,665
1	0,000	101,550	1943,866
1	0,000	101,601	1944,067
1	0,000	101,601	1944,370
1	0,000	101,650	1944,672
1	0,000	101,701	1944,772
1	0,000	101,701	1944,974
1	0,000	101,751	1945,175
1	0,000	101,802	1945,477
1	0,000	101,802	1945,679
1	0,000	101,852	1945,779
1	0,000	101,902	1946,082
1	0,000	101,902	1946,283
1	0,000	101,952	1946,484
1	0,000	102,002	1946,786
1	0,000	102,002	1946,988
1	0,000	102,053	1947,290
1	0,000	102,103	1947,491
1	0,000	102,103	1947,592
1	0,000	102,153	1947,794
1	0,000	102,203	1948,096
1	0,000	102,203	1948,297
1	0,000	102,253	1948,599
1	0,000	102,304	1948,801
1	0,000	102,304	1949,002
1	0,000	102,354	1949,103
1	0,000	102,404	1949,405
1	0,000	102,404	1949,707
1	0,000	102,454	1949,808
1	0,000	102,504	1950,009
1	0,000	102,504	1950,311
1	0,000	102,555	1950,613
1	0,000	102,605	1950,815
1	0,000	102,605	1951,016
1	0,000	102,655	1951,117
1	0,000	102,705	1951,419
1	0,000	102,705	1951,620
1	0,000	102,755	1951,822
1	0,000	102,805	1952,023
1	0,000	102,805	1952,225
1	0,000	102,856	1952,426
1	0,000	102,906	1952,628
1	0,000	102,906	1952,930
1	0,000	102,956	1953,131
1	0,000	103,007	1953,333
1	0,000	103,007	1953,635
1	0,000	103,057	1953,735
1	0,000	103,107	1954,037
1	0,000	103,107	1954,239
1	0,000	103,157	1954,440
1	0,000	103,208	1954,742
1	0,000	103,208	1954,944
1	0,000	103,257	1955,145
1	0,000	103,307	1955,447
1	0,000	103,307	1955,750
1	0,000	103,357	1955,850
1	0,000	103,408	1956,152
1	0,000	103,408	1956,454
1	0,000	103,458	1956,555
1	0,000	103,508	1956,857
1	0,000	103,508	1957,159
1	0,000	103,558	1957,361
1	0,000	103,608	1957,562
1	0,000	103,608	1957,864
1	0,000	103,658	1958,066
1	0,000	103,708	1958,267
1	0,000	103,708	1958,469
1	0,000	103,758	1958,871
1	0,000	103,808	1959,073
1	0,000	103,808	1959,274
1	0,000	103,858	1959,576
1	0,000	103,908	1959,677
1	0,000	103,908	1959,979
1	0,000	103,959	1960,281
1	0,000	104,008	1960,483
1	0,000	104,008	1960,785
1	0,000	104,059	1960,986
1	0,000	104,109	1961,188
1	0,000	104,109	1961,490
1	0,000	104,159	1961,792
1	0,000	104,210	1961,993
1	0,000	104,210	1962,396
1	0,000	104,260	1962,497
1	0,000	104,310	1962,799
1	0,000	104,310	1963,000
1	0,000	104,361	1963,303
1	0,000	104,411	1963,605
1	0,000	104,411	1963,907
1	0,000	104,462	1964,008
1	0,000	104,512	1964,310
1	0,000	104,512	1964,612
1	0,000	104,562	1964,813
1	0,000	104,612	1965,015
1	0,000	104,612	1965,216
1	0,000	104,663	1965,518
1	0,000	104,712	1965,921
1	0,000	104,712	1966,122
1	0,000	104,763	1966,324
1	0,000	104,763	1966,727
1	0,000	104,813	1966,928
1	0,000	104,863	1967,130
1	0,000	104,863	1967,432
1	0,000	104,913	1967,734
1	0,000	104,963	1967,935
1	0,000	104,963	1968,237
1	0,000	105,013	1968,439
1	0,000	105,063	1968,741
1	0,000	105,063	1969,043
1	0,000	105,113	1969,244
1	0,000	105,163	1969,547
1	0,000	105,163	1970,050
1	0,000	105,214	1970,151
1	0,000	105,263	1970,453
1	0,000	105,263	1970,755
1	0,000	105,314	1970,956
1	0,000	105,364	1971,359
1	0,000	105,364	1971,460
1	0,000	105,414	1971,863
1	0,000	105,465	1972,064
1	0,000	105,465	1972,366
1	0,000	105,515	1972,668
1	0,000	105,564	1972,870
1	0,000	105,564	1973,172
1	0,000	105,615	1973,474
1	0,000	105,665	1973,676
1	0,000	105,665	1973,978
1	0,000	105,715	1974,280
1	0,000	105,765	1974,481
1	0,000	105,765	1974,783
1	0,000	105,816	1975,085
1	0,000	105,866	1975,790
1	0,000	105,866	1975,690
1	0,000	105,916	1975,891
1	0,000	105,966	1976,193
1	0,000	105,966	1976,395
1	0,000	106,016	1976,797
1	0,000	106,066	1976,999
1	0,000	106,066	1977,200
1	0,000	106,116	1977,402
1	0,000	106,167	1977,704
1	0,000	106,167	1978,107
1	0,000	106,218	1978,409
1	0,000	106,268	1978,711
1	0,000	106,268	1978,912
1	0,000	106,318	1979,214
1	0,000	106,368	1979,517
1	0,000	106,368	1979,819
1	0,000	106,418	1980,121
1	0,000	106,468	1980,423
1	0,000	106,468	1980,725
1	0,000	106,518	1981,027
1	0,000	106,568	1981,329
1	0,000	106,568	1981,631
1	0,000	106,618	1981,934
1	0,000	106,668	1982,236
1	0,000	106,668	1982,538
1	0,000	106,719	1982,840
1	0,000	106,768	1983,142
1	0,000	106,768	1983,444
1	0,000	106,818	1983,646
1	0,000	106,869	1983,948
1	0,000	106,869	1984,351
1	0,000	106,918	1984,653
1	0,000	106,969	1984,955
1	0,000	106,969	1985,257
1	0,000	107,018	1985,458
1	0,000	107,069	1985,861
1	0,000	107,069	1986,163
1	0,000	107,119	1986,365
1	0,000	107,169	1986,868
1	0,000	107,169	1987,372
1	0,000	107,219	1987,775
1	0,000	107,269	1987,976
1	0,000	107,269	1988,278
1	0,000	107,319	1988,278
1	0,000	107,370	1988,681
1	0,000	107,370	1988,983
1	0,000	107,420	1989,185
1	0,000	107,470	1989,487
1	0,000	107,470	1989,688
1	0,000	107,520	1989,990
1	0,000	107,570	1990,292
1	0,000	107,570	1990,594
1	0,000	107,620	1990,997
1	0,000	107,670	1991,199
1	0,000	107,670	1991,501
1	0,000	107,721	1991,803
1	0,000	107,770	1992,105
1	0,000	107,770	1992,407
1	0,000	107,821	1992,709
1	0,000	107,870	1993,011
1	0,000	107,870	1993,414
1	0,000	107,920	1993,616
1	0,000	107,971	1993,918
1	0,000	107,971	1994,321
1	0,000	108,021	1994,724
1	0,000	108,072	1995,026
1	0,000	108,072	1995,328
1	0,000	108,122	1995,630
1	0,000	108,173	1996,033
1	0,000	108,173	1996,335
1	0,000	108,223	1996,536
1	0,000	108,274	1996,939
1	0,000	108,274	1997,241
1	0,000	108,324	1997,443
1	0,000	108,374	1997,845
1	0,000	108,374	1998,148
1	0,000	108,424	1998,550
1	0,000	108,474	1998,853
1	0,000	108,474	1999,255
1	0,000	108,524	1999,557
1	0,000	108,575	1999,860
1	0,000	108,575	2000,162
1	0,000	108,625	2000,464
1	0,000	108,675	2000,867
1	0,000	108,675	2001,068
1	0,000	108,725	2001,370
1	0,000	108,775	2001,672
1	0,000	108,775	2001,974
1	0,000	108,825	2002,377
1	0,000	108,875	2002,679
1	0,000	108,875	2002,982
1	0,000	108,926	2003,687
1	0,000	108,976	2003,787
1	0,000	108,976	2003,888
1	0,000	109,026	2004,190
1	0,000	109,076	2004,593
1	0,000	109,076	2004,895
1	0,000	109,126	2005,197
1	0,000	109,177	2005,600
1	0,000	109,177	2006,003
1	0,000	109,226	2006,406
1	0,000	109,276	2006,708
1	0,000	109,276	2007,010
1	0,000	109,326	2007,413
1	0,000	109,376	2007,816
1	0,000	109,376	2008,118
1	0,000	109,427	2008,420
1	0,000	109,427	2008,722
1	0,000	109,477	2009,024
1	0,000	109,528	2009,427
1	0,000	109,528	2009,830
1	0,000	109,578	2010,132
1	0,000	109,627	2010,434
1	0,000	109,627	2010,837
1	0,000	109,678	2011,139
1	0,000	109,728	2011,441
1	0,000	109,728	2011,844
1	0,000	109,778	2012,146
1	0,000	109,828	2012,448
1	0,000	109,828	2012,851
1	0,000	109,879	2013,153
1	0,000	109,929	2013,455
1	0,000	109,929	2013,858
1	0,000	109,979	2014,160
1	0,000	110,028	2014,462
1	0,000	110,028	2014,865
1	0,000	110,079	2015,167
1	0,000	110,129	2015,570
1	0,000	110,129	2015,973
1	0,000	110,179	2016,275
1	0,000	110,229	2016,577
1	0,000	110,229	2016,980
1	0,000	110,279	2017,282
1	0,000	110,330	2017,584
1	0,000	110,330	2017,987
1	0,000	110,380	2018,289
1	0,000	110,430	2018,692
1	0,000	110,430	2019,095
1	0,000	110,480	2019,397
1	0,000	110,530	2019,800
1	0,000	110,530	2020,102
1	0,000	110,580	2020,505
1	0,000	110,631	2020,908
1	0,000	110,631	2021,109
1	0,000	110,680	2021,512
1	0,000	110,731	2021,814
1	0,000	110,731	2022,116
1	0,000	110,780	2022,519
1	0,000	110,831	2022,720
1	0,000	110,831	2023,123
1	0,000	110,881	2023,425
1	0,000	110,932	2023,727
1	0,000	110,932	2024,130
1	0,000	110,982	2024,432
1	0,000	111,032	2024,734
1	0,000	111,032	2025,238
1	0,000	111,083	2025,540
1	0,000	111,133	2025,943
1	0,000	111,133	2026,245
1	0,000	111,183	2026,547
1	0,000	111,233	2026,950
1	0,000	111,233	2027,353
1	0,000	111,283	2027,655
1	0,000	111,334	2027,957
1	0,000	111,334	2028,360
1	0,000	111,383	2028,763
1	0,000	111,434	2029,065
1	0,000	111,434	2029,367
1	0,000	111,483	2029,770
1	0,000	111,534	2030,173
1	0,000	111,534	2030,576
1	0,000	111,584	2030,878
1	0,000	111,634	2031,281
1	0,000	111,634	2031,683
1	0,000	111,684	2032,086
1	0,000	111,734	2032,489
1	0,000	111,734	2032,892
1	0,000	111,785	2033,295
1	0,000	111,835	2033,597
1	0,000	111,835	2034,000
1	0,000	111,885	2034,402
1	0,000	111,935	2034,705
1	0,000	111,935	2035,007
1	0,000	111,985	2035,410
1	0,000	112,035	2035,712
1	0,000	112,035	2036,014
1	0,000	112,086	2036,316
1	0,000	112,136	2036,618
1	0,000	112,136	2036,920
1	0,000	112,186	2037,323
1	0,000	112,237	2037,726
1	0,000	112,237	2038,028
1	0,000	112,287	2038,330
1	0,000	112,337	2038,834
1	0,000	112,337	2039,136
1	0,000	112,387	2039,438
1	0,000	112,437	2039,941
1	0,000	112,437	2040,244
1	0,000	112,488	2040,747
1	0,000	112,538	2041,049
1	0,000	112,538	2041,351
1	0,000	112,589	2041,754
1	0,000	112,639	2042,258
1	0,000	112,639	2042,560
1	0,000	112,689	2042,862
1	0,000	112,739	2043,365
1	0,000	112,739	2043,668
1	0,000	112,789	2043,869
1	0,000	112,839	2044,473
1	0,000	112,839	2044,876
1	0,000	112,889	2045,279
1	0,000	112,939	2045,682
1	0,000	112,939	2046,286
1	0,000	112,989	2046,588
1	0,000	113,040	2046,991
1	0,000	113,040	2047,293
1	0,000	113,090	2047,495
1	0,000	113,140	2047,998
1	0,000	113,140	2048,199
1	0,000	113,190	2048,602
1	0,000	113,240	2049,005
1	0,000	113,240	2049,307
1	0,000	113,290	2049,609
1	0,000	113,341	2050,012
1	0,000	113,341	2050,415
1	0,000	113,391	2050,818
1	0,000	113,441	2051,120
1	0,000	113,441	2051,523
1	0,000	113,491	2051,926
1	0,000	113,541	2052,328
1	0,000	113,541	2052,731
1	0,000	113,591	2053,134
1	0,000	113,641	2053,537
1	0,000	113,641	2053,940
1	0,000	113,691	2054,343
1	0,000	113,741	2054,645
1	0,000	113,741	2055,048
1	0,000	113,791	2055,450
1	0,000	113,842	2055,853
1	0,000	113,842	2056,357
1	0,000	113,892	2056,659
1	0,000	113,942	2057,062
1	0,000	113,942	2057,465
1	0,000	113,992	2057,867
1	0,000	113,992	2058,270
1	0,000	114,042	2058,572
1	0,000	114,092	2059,076
1	0,000	114,092	2059,479
1	0,000	114,143	2059,982
1	0,000	114,192	2060,284
1	0,000	114,243	2060,687
1	0,000	114,243	2061,090
1	0,000	114,293	2061,493
1	0,000	114,293	2061,795
1	0,000	114,343	2062,299
1	0,000	114,393	2062,701
1	0,000	114,393	2063,004
1	0,000	114,443	2063,507
1	0,000	114,494	2063,809
1	0,000	114,494	2064,313
1	0,000	114,544	2064,716
1	0,000	114,594	2065,118
1	0,000	114,594	2065,521
1	0,000	114,645	2065,924
1	0,000	114,695	2066,428
1	0,000	114,695	2066,830
1	0,000	114,745	2067,334
1	0,000	114,795	2067,636
1	0,000	114,795	2068,140
1	0,000	114,846	2068,643
1	0,000	114,896	2068,945
1	0,000	114,896	2069,449
1	0,000	114,946	2069,852
1	0,000	114,996	2070,255
1	0,000	114,996	2070,657
1	0,000	115,046	2071,060
1	0,000	115,097	2071,463
1	0,000	115,097	2071,765
1	0,000	115,147	2072,168
1	0,000	115,197	2072,672
1	0,000	115,197	2073,074
1	0,000	115,247	2073,679
1	0,000	115,298	2073,880
1	0,000	115,298	2074,283
1	0,000	115,348	2074,585
1	0,000	115,398	2075,089
1	0,000	115,398	2075,391
1	0,000	115,448	2075,793
1	0,000	115,498	2076,297
1	0,000	115,498	2076,700
1	0,000	115,549	2077,203
1	0,000	115,599	2077,707
1	0,000	115,599	2078,110
1	0,000	115,649	2078,613
1	0,000	115,699	2078,915
1	0,000	115,699	2079,419
1	0,000	115,749	2079,721
1	0,000	115,799	2080,225
1	0,000	115,799	2080,627
1	0,000	115,849	2081,030
1	0,000	115,899	2081,534
1	0,000	115,899	2081,836
1	0,000	115,949	2082,239
1	0,000	115,999	2082,642
1	0,000	115,999	2083,044
1	0,000	116,050	2083,447
1	0,000	116,099	2083,951
1	0,000	116,099	2084,253
1	0,000	116,150	2084,656
1	0,000	116,199	2085,059
1	0,000	116,199	2085,562
1	0,000	116,250	2085,965
1	0,000	116,300	2086,368
1	0,000	116,300	2086,771
1	0,000	116,350	2087,173
1	0,000	116,400	2087,677
1	0,000	116,400	2088,080
1	0,000	116,451	2088,583
1	0,000	116,501	2088,885
1	0,000	116,501	2089,288
1	0,000	116,551	2089,792
1	0,000	116,601	2090,195
1	0,000	116,601	2090,598
1	0,000	116,652	2091,202
1	0,000	116,702	2091,605
1	0,000	116,702	2092,007
1	0,000	116,752	2092,511
1	0,000	116,802	2092,813
1	0,000	116,802	2093,216
1	0,000	116,853	2093,619
1	0,000	116,903	2094,223
1	0,000	116,903	2094,525
1	0,000	116,953	2094,928
1	0,000	117,003	2095,432
1	0,000	117,003	2095,834
1	0,000	117,053	2096,237
1	0,000	117,103	2096,640
1	0,000	117,103	2097,144
1	0,000	117,153	2097,647
1	0,000	117,203	2098,050
1	0,000	117,203	2098,453
1	0,000	117,253	2098,956
1	0,000	117,304	2099,258
1	0,000	117,304	2099,762
1	0,000	117,354	2100,165
1	0,000	117,404	2100,568
1	0,000	117,404	2100,970
1	0,000	117,454	2101,474
1	0,000	117,505	2101,877
1	0,000	117,505	2102,380
1	0,000	117,555	2102,783
1	0,000	117,605	2103,186
1	0,000	117,605	2103,790
1	0,000	117,656	2104,092
1	0,000	117,706	2104,495
1	0,000	117,706	2104,898
1	0,000	117,756	2105,402
1	0,000	117,806	2105,804
1	0,000	117,806	2106,207
1	0,000	117,856	2106,711
1	0,000	117,906	2107,114
1	0,000	117,906	2107,617
1	0,000	117,956	2108,020
1	0,000	118,006	2108,524
1	0,000	118,006	2108,926
1	0,000	118,057	2109,430
1	0,000	118,107	2109,833
1	0,000	118,107	2110,336
1	0,000	118,157	2110,739
1	0,000	118,157	2111,243
1	0,000	118,207	2111,646
1	0,000	118,257	2112,149
1	0,000	118,257	2112,653
1	0,000	118,307	2112,955
1	0,000	118,357	2113,559
1	0,000	118,357	2113,962
1	0,000	118,407	2114,465
1	0,000	118,458	2114,868
1	0,000	118,458	2115,271
1	0,000	118,508	2115,775
1	0,000	118,558	2116,177
1	0,000	118,558	2116,681
1	0,000	118,608	2117,184
1	0,000	118,658	2117,587
1	0,000	118,658	2118,091
1	0,000	118,709	2118,494
1	0,000	118,759	2118,997
1	0,000	118,759	2119,400
1	0,000	118,809	2119,904
1	0,000	118,859	2120,407
1	0,000	118,859	2120,810
1	0,000	118,909	2121,213
1	0,000	118,959	2121,616
1	0,000	118,959	2122,220
1	0,000	119,009	2122,723
1	0,000	119,059	2123,126
1	0,000	119,059	2123,630
1	0,000	119,109	2124,133
1	0,000	119,159	2124,536
1	0,000	119,159	2125,040
1	0,000	119,209	2125,342
1	0,000	119,259	2125,946
1	0,000	119,259	2126,349
1	0,000	119,309	2126,852
1	0,000	119,359	2127,255
1	0,000	119,359	2127,859
1	0,000	119,410	2128,262
1	0,000	119,460	2128,766
1	0,000	119,460	2129,269
1	0,000	119,510	2129,672
1	0,000	119,560	2130,176
1	0,000	119,560	2130,679
1	0,000	119,610	2131,183
1	0,000	119,660	2131,586
1	0,000	119,660	2131,989
1	0,000	119,711	2132,492
1	0,000	119,761	2132,895
1	0,000	119,761	2133,298
1	0,000	119,811	2133,801
1	0,000	119,861	2134,305
1	0,000	119,861	2134,708
1	0,000	119,911	2135,211
1	0,000	119,961	2135,614
1	0,000	119,961	2136,017
1	0,000	120,011	2136,621
1	0,000	120,061	2137,225
1	0,000	120,061	2137,729
1	0,000	120,112	2138,232
1	0,000	120,162	2138,736
1	0,000	120,162	2139,139
1	0,000	120,212	2139,542
1	0,000	120,262	2140,146
1	0,000	120,262	2140,649
1	0,000	120,312	2140,952
1	0,000	120,363	2141,455
1	0,000	120,363	2141,959
1	0,000	120,413	2142,361
1	0,000	120,464	2142,865
1	0,000	120,464	2143,369
1	0,000	120,513	2143,872
1	0,000	120,564	2144,275
1	0,000	120,564	2144,778
1	0,000	120,614	2145,282
1	0,000	120,664	2145,786
1	0,000	120,664	2146,188
1	0,000	120,714	2146,692
1	0,000	120,764	2147,296
1	0,000	120,764	2147,699
1	0,000	120,814	2148,102
1	0,000	120,864	2148,605
1	0,000	120,864	2149,109
1	0,000	120,914	2149,612
1	0,000	120,964	2150,116
1	0,000	120,964	2150,620
1	0,000	121,014	2151,123
1	0,000	121,065	2151,627
1	0,000	121,065	2152,029
1	0,000	121,115	2152,533
1	0,000	121,164	2153,036
1	0,000	121,164	2153,439
1	0,000	121,214	2154,044
1	0,000	121,265	2154,446
1	0,000	121,265	2154,950
1	0,000	121,315	2155,453
1	0,000	121,365	2155,957
1	0,000	121,365	2156,461
1	0,000	121,415	2156,964
1	0,000	121,465	2157,367
1	0,000	121,465	2157,870
1	0,000	121,515	2158,273
1	0,000	121,565	2158,878
1	0,000	121,565	2159,381
1	0,000	121,615	2159,784
1	0,000	121,666	2160,388
1	0,000	121,666	2160,892
1	0,000	121,716	2161,395
1	0,000	121,766	2161,899
1	0,000	121,766	2162,503
1	0,000	121,816	2163,007
1	0,000	121,866	2163,409
1	0,000	121,866	2164,014
1	0,000	121,917	2164,417
1	0,000	121,967	2165,021
1	0,000	121,967	2165,524
1	0,000	122,017	2166,028
1	0,000	122,067	2166,431
1	0,000	122,067	2166,934
1	0,000	122,117	2167,438
1	0,000	122,167	2167,337
1	0,000	122,167	2168,143
1	0,000	122,217	2168,747
1	0,000	122,267	2169,150
1	0,000	122,267	2169,653
1	0,000	122,318	2170,157
1	0,000	122,368	2170,660
1	0,000	122,368	2171,063
1	0,000	122,418	2171,567
1	0,000	122,468	2172,070
1	0,000	122,468	2172,574
1	0,000	122,518	2173,077
1	0,000	122,568	2173,581
1	0,000	122,568	2174,084
1	0,000	122,618	2174,588
1	0,000	122,668	2174,991
1	0,000	122,668	2175,494
1	0,000	122,719	2175,998
1	0,000	122,768	2176,602
1	0,000	122,768	2177,106
1	0,000	122,819	2177,609
1	0,000	122,869	2178,113
1	0,000	122,869	2178,616
1	0,000	122,919	2179,120
1	0,000	122,970	2179,623
1	0,000	122,970	2180,228
1	0,000	123,019	2180,630
1	0,000	123,070	2181,134
1	0,000	123,070	2181,638
1	0,000	123,120	2182,040
1	0,000	123,170	2182,645
1	0,000	123,170	2183,148
1	0,000	123,220	2183,551
1	0,000	123,270	2184,155
1	0,000	123,270	2184,659
1	0,000	123,321	2185,263
1	0,000	123,321	2185,666
1	0,000	123,370	2186,169
1	0,000	123,421	2186,673
1	0,000	123,421	2187,177
1	0,000	123,471	2187,680
1	0,000	123,521	2188,083
1	0,000	123,521	2188,687
1	0,000	123,571	2189,191
1	0,000	123,621	2189,694
1	0,000	123,621	2190,097
1	0,000	123,671	2190,601
1	0,000	123,721	2191,205
1	0,000	123,721	2191,708
1	0,000	123,771	2192,212
1	0,000	123,821	2192,715
1	0,000	123,821	2193,521
1	0,000	123,872	2193,823
1	0,000	123,922	2194,226
1	0,000	123,922	2194,629
1	0,000	123,972	2195,132
1	0,000	124,022	2195,636
1	0,000	124,022	2196,140
1	0,000	124,072	2196,643
1	0,000	124,123	2197,147
1	0,000	124,123	2197,751
1	0,000	124,173	2198,254
1	0,000	124,224	2198,758
1	0,000	124,224	2199,261
1	0,000	124,274	2199,765
1	0,000	124,324	2200,269
1	0,000	124,324	2200,772
1	0,000	124,374	2201,376
1	0,000	124,424	2201,880
1	0,000	124,424	2202,484
1	0,000	124,474	2202,887
1	0,000	124,524	2203,391
1	0,000	124,524	2203,894
1	0,000	124,574	2204,498
1	0,000	124,624	2205,002
1	0,000	124,624	2205,505
1	0,000	124,674	2206,110
1	0,000	124,724	2206,714
1	0,000	124,724	2207,117
1	0,000	124,774	2207,620
1	0,000	124,824	2208,124
1	0,000	124,824	2208,728
1	0,000	124,874	2209,131
1	0,000	124,925	2209,735
1	0,000	124,925	2210,339
1	0,000	124,975	2210,742
1	0,000	125,025	2211,346
1	0,000	125,025	2211,850
1	0,000	125,076	2212,354
1	0,000	125,126	2212,958
1	0,000	125,126	2213,461
1	0,000	125,176	2213,965
1	0,000	125,226	2214,468
1	0,000	125,226	2214,972
1	0,000	125,276	2215,576
1	0,000	125,326	2216,080
1	0,000	125,326	2216,684
1	0,000	125,376	2217,187
1	0,000	125,427	2217,691
1	0,000	125,427	2218,396
1	0,000	125,477	2218,900
1	0,000	125,527	2219,403
1	0,000	125,527	2220,007
1	0,000	125,578	2220,511
1	0,000	125,628	2221,115
1	0,000	125,628	2221,518
1	0,000	125,678	2222,122
1	0,000	125,728	2222,626
1	0,000	125,728	2223,230
1	0,000	125,779	2223,734
1	0,000	125,829	2224,338
1	0,000	125,829	2224,741
1	0,000	125,879	2225,446
1	0,000	125,928	2225,949
1	0,000	125,928	2226,453
1	0,000	125,979	2226,956
1	0,000	126,028	2227,661
1	0,000	126,028	2228,064
1	0,000	126,079	2228,668
1	0,000	126,129	2229,172
1	0,000	126,129	2229,776
1	0,000	126,179	2230,280
1	0,000	126,230	2230,884
1	0,000	126,230	2231,387
1	0,000	126,280	2231,992
1	0,000	126,330	2232,495
1	0,000	126,330	2233,099
1	0,000	126,380	2233,502
1	0,000	126,430	2234,106
1	0,000	126,430	2234,610
1	0,000	126,481	2235,114
1	0,000	126,530	2235,718
1	0,000	126,530	2236,221
1	0,000	126,580	2236,826
1	0,000	126,630	2237,329
1	0,000	126,630	2237,933
1	0,000	126,680	2238,538
1	0,000	126,731	2239,041
1	0,000	126,731	2239,645
1	0,000	126,781	2240,149
1	0,000	126,831	2240,753
1	0,000	126,831	2241,357
1	0,000	126,881	2241,760
1	0,000	126,931	2242,365
1	0,000	126,931	2241,861
1	0,000	126,981	2243,875
1	0,000	127,032	2243,976
1	0,000	127,032	2244,580
1	0,000	127,082	2245,184
1	0,000	127,133	2245,688
1	0,000	127,133	2246,292
1	0,000	127,183	2246,695
1	0,000	127,233	2247,299
1	0,000	127,233	2247,803
1	0,000	127,283	2248,407
1	0,000	127,333	2248,911
1	0,000	127,333	2249,515
1	0,000	127,383	2250,018
1	0,000	127,434	2250,623
1	0,000	127,434	2251,126
1	0,000	127,483	2251,730
1	0,000	127,534	2252,335
1	0,000	127,534	2252,737
1	0,000	127,584	2253,342
1	0,000	127,634	2253,946
1	0,000	127,634	2254,550
1	0,000	127,684	2255,054
1	0,000	127,734	2255,658
1	0,000	127,734	2256,161
1	0,000	127,784	2256,665
1	0,000	127,834	2257,269
1	0,000	127,834	2257,874
1	0,000	127,884	2258,377
1	0,000	127,934	2258,881
1	0,000	127,934	2259,485
1	0,000	127,984	2259,988
1	0,000	128,034	2260,492
1	0,000	128,034	2261,096
1	0,000	128,085	2261,700
1	0,000	128,135	2262,204
1	0,000	128,135	2262,909
1	0,000	128,185	2263,412
1	0,000	128,185	2263,916
1	0,000	128,235	2264,520
1	0,000	128,285	2265,125
1	0,000	128,335	2265,628
1	0,000	128,335	2266,232
1	0,000	128,385	2266,736
1	0,000	128,385	2267,139
1	0,000	128,435	2267,944
1	0,000	128,486	2268,448
1	0,000	128,486	2269,052
1	0,000	128,535	2269,556
1	0,000	128,586	2270,160
1	0,000	128,586	2270,764
1	0,000	128,636	2271,268
1	0,000	128,686	2271,771
1	0,000	128,686	2272,476
1	0,000	128,736	2272,980
1	0,000	128,786	2273,584
1	0,000	128,786	2274,188
1	0,000	128,837	2274,792
1	0,000	128,886	2275,296
1	0,000	128,886	2275,900
1	0,000	128,936	2276,505
1	0,000	128,986	2277,008
1	0,000	128,986	2277,713
1	0,000	129,036	2278,217
1	0,000	129,086	2278,821
1	0,000	129,086	2279,425
1	0,000	129,137	2280,029
1	0,000	129,187	2280,734
1	0,000	129,187	2281,238
1	0,000	129,237	2281,842
1	0,000	129,288	2282,446
1	0,000	129,288	2283,051
1	0,000	129,338	2283,554
1	0,000	129,389	2283,957
1	0,000	129,389	2284,662
1	0,000	129,438	2285,266
1	0,000	129,489	2285,870
1	0,000	129,489	2286,374
1	0,000	129,539	2286,978
1	0,000	129,589	2287,582
1	0,000	129,589	2288,187
1	0,000	129,639	2288,791
1	0,000	129,689	2289,496
1	0,000	129,689	2289,999
1	0,000	129,739	2290,604
1	0,000	129,789	2291,208
1	0,000	129,789	2291,812
1	0,000	129,840	2292,416
1	0,000	129,889	2292,920
1	0,000	129,889	2293,524
1	0,000	129,940	2294,028
1	0,000	129,990	2294,632
1	0,000	129,990	2295,236
1	0,000	130,040	2295,840
1	0,000	130,090	2296,445
1	0,000	130,090	2296,948
1	0,000	130,140	2297,552
1	0,000	130,190	2298,157
1	0,000	130,190	2298,761
1	0,000	130,240	2299,365
1	0,000	130,290	2299,969
1	0,000	130,290	2300,574
1	0,000	130,340	2301,077
1	0,000	130,390	2301,682
1	0,000	130,390	2302,286
1	0,000	130,439	2302,890
1	0,000	130,490	2303,394
1	0,000	130,490	2303,998
1	0,000	130,540	2304,602
1	0,000	130,590	2305,206
1	0,000	130,590	2305,811
1	0,000	130,640	2306,415
1	0,000	130,691	2307,019
1	0,000	130,691	2307,623
1	0,000	130,741	2308,228
1	0,000	130,791	2308,832
1	0,000	130,791	2309,436
1	0,000	130,841	2310,040
1	0,000	130,892	2310,645
1	0,000	130,892	2311,249
1	0,000	130,941	2311,853
1	0,000	130,991	2312,457
1	0,000	130,991	2313,162
1	0,000	131,041	2313,766
1	0,000	131,091	2314,270
1	0,000	131,091	2314,975
1	0,000	131,141	2315,479
1	0,000	131,191	2316,083
1	0,000	131,191	2316,788
1	0,000	131,241	2317,392
1	0,000	131,292	2317,996
1	0,000	131,292	2318,701
1	0,000	131,342	2319,104
1	0,000	131,392	2319,809
1	0,000	131,392	2320,413
1	0,000	131,443	2320,917
1	0,000	131,492	2321,622
1	0,000	131,492	2322,226
1	0,000	131,542	2322,729
1	0,000	131,592	2323,434
1	0,000	131,592	2324,039
1	0,000	131,643	2324,643
1	0,000	131,693	2325,348
1	0,000	131,693	2325,952
1	0,000	131,743	2326,556
1	0,000	131,793	2327,161
1	0,000	131,793	2327,765
1	0,000	131,843	2328,369
1	0,000	131,894	2328,873
1	0,000	131,894	2329,477
1	0,000	131,944	2330,182
1	0,000	131,994	2330,786
1	0,000	131,994	2331,290
1	0,000	132,043	2331,995
1	0,000	132,094	2332,498
1	0,000	132,094	2333,102
1	0,000	132,144	2333,807
1	0,000	132,194	2334,613
1	0,000	132,194	2335,016
1	0,000	132,244	2335,620
1	0,000	132,294	2336,526
1	0,000	132,294	2336,829
1	0,000	132,344	2337,433
1	0,000	132,395	2338,037
1	0,000	132,395	2338,641
1	0,000	132,445	2339,246
1	0,000	132,495	2339,850
1	0,000	132,495	2340,454
1	0,000	132,546	2341,159
1	0,000	132,596	2341,763
1	0,000	132,596	2342,368
1	0,000	132,647	2342,871
1	0,000	132,697	2343,576
1	0,000	132,697	2344,281
1	0,000	132,747	2344,785
1	0,000	132,797	2345,490
1	0,000	132,797	2346,094
1	0,000	132,846	2346,698
1	0,000	132,897	2347,302
1	0,000	132,897	2347,906
1	0,000	132,947	2348,511
1	0,000	132,997	2349,216
1	0,000	132,997	2349,820
1	0,000	133,047	2350,424
1	0,000	133,097	2350,928
1	0,000	133,097	2351,633
1	0,000	133,148	2352,237
1	0,000	133,197	2352,942
1	0,000	133,197	2353,445
1	0,000	133,247	2354,050
1	0,000	133,297	2354,755
1	0,000	133,297	2355,359
1	0,000	133,348	2356,064
1	0,000	133,397	2356,668
1	0,000	133,397	2357,272
1	0,000	133,448	2357,977
1	0,000	133,498	2358,582
1	0,000	133,498	2359,085
1	0,000	133,548	2359,891
1	0,000	133,598	2360,495
1	0,000	133,598	2360,898
1	0,000	133,648	2361,804
1	0,000	133,698	2362,308
1	0,000	133,698	2362,912
1	0,000	133,748	2363,516
1	0,000	133,798	2364,120
1	0,000	133,798	2364,725
1	0,000	133,848	2365,430
1	0,000	133,848	2365,933
1	0,000	133,899	2366,739
1	0,000	133,949	2367,242
1	0,000	133,949	2368,048
1	0,000	133,999	2368,451
1	0,000	134,049	2369,156
1	0,000	134,049	2369,760
1	0,000	134,099	2370,465
1	0,000	134,149	2371,069
1	0,000	134,200	2371,573
1	0,000	134,200	2372,278
1	0,000	134,249	2372,983
1	0,000	134,249	2373,486
1	0,000	134,300	2374,191
1	0,000	134,349	2374,796
1	0,000	134,400	2375,500
1	0,000	134,400	2376,105
1	0,000	134,450	2376,709
1	0,000	134,450	2377,414
1	0,000	134,499	2378,018
1	0,000	134,549	2378,622
1	0,000	134,549	2379,327
1	0,000	134,600	2379,932
1	0,000	134,649	2380,637
1	0,000	134,649	2381,241
1	0,000	134,700	2381,946
1	0,000	134,749	2382,651
1	0,000	134,749	2383,154
1	0,000	134,800	2383,859
1	0,000	134,850	2384,866
1	0,000	134,850	2385,168
1	0,000	134,900	2385,672
1	0,000	134,950	2386,478
1	0,000	134,950	2387,384
1	0,000	135,000	2387,988
1	0,000	135,050	2388,693
1	0,000	135,050	2389,096
1	0,000	135,100	2389,700
1	0,000	135,151	2390,405
1	0,000	135,151	2390,909
1	0,000	135,201	2391,614
1	0,000	135,251	2392,319
1	0,000	135,251	2392,923
1	0,000	135,301	2393,527
1	0,000	135,351	2394,333
1	0,000	135,351	2394,937
1	0,000	135,401	2395,541
1	0,000	135,452	2396,246
1	0,000	135,452	2396,851
1	0,000	135,502	2397,455
1	0,000	135,552	2398,160
1	0,000	135,552	2398,764
1	0,000	135,602	2399,368
1	0,000	135,652	2399,973
1	0,000	135,652	2400,677
1	0,000	135,702	2401,282
1	0,000	135,752	2401,987
1	0,000	135,752	2402,591
1	0,000	135,802	2403,296
1	0,000	135,853	2403,900
1	0,000	135,853	2404,605
1	0,000	135,903	2405,310
1	0,000	135,953	2405,914
1	0,000	135,953	2406,619
1	0,000	136,003	2407,224
1	0,000	136,053	2407,928
1	0,000	136,053	2408,633
1	0,000	136,103	2409,238
1	0,000	136,153	2409,842
1	0,000	136,153	2410,547
1	0,000	136,202	2411,252
1	0,000	136,253	2411,655
1	0,000	136,253	2412,460
1	0,000	136,303	2413,165
1	0,000	136,353	2413,870
1	0,000	136,353	2414,474
1	0,000	136,403	2415,179
1	0,000	136,453	2415,784
1	0,000	136,453	2416,489
1	0,000	136,503	2417,194
1	0,000	136,554	2417,798
1	0,000	136,554	2418,604
1	0,000	136,604	2419,107
1	0,000	136,654	2419,711
1	0,000	136,654	2420,517
1	0,000	136,704	2421,021
1	0,000	136,754	2421,826
1	0,000	136,754	2422,330
1	0,000	136,804	2423,035
1	0,000	136,854	2423,639
1	0,000	136,854	2424,243
1	0,000	136,905	2424,948
1	0,000	136,954	2425,552
1	0,000	136,954	2426,257
1	0,000	137,004	2426,962
1	0,000	137,054	2427,567
1	0,000	137,054	2428,372
1	0,000	137,105	2428,976
1	0,000	137,154	2429,581
1	0,000	137,154	2430,286
1	0,000	137,204	2430,890
1	0,000	137,254	2431,595
1	0,000	137,254	2432,401
1	0,000	137,304	2432,803
1	0,000	137,354	2433,508
1	0,000	137,354	2434,113
1	0,000	137,404	2434,616
1	0,000	137,455	2435,522
1	0,000	137,455	2436,026
1	0,000	137,505	2436,630
1	0,000	137,555	2437,436
1	0,000	137,555	2438,040
1	0,000	137,605	2438,846
1	0,000	137,655	2439,450
1	0,000	137,655	2440,256
1	0,000	137,706	2440,659
1	0,000	137,756	2441,464
1	0,000	137,756	2442,169
1	0,000	137,807	2442,874
1	0,000	137,857	2443,478
1	0,000	137,857	2444,183
1	0,000	137,907	2444,888
1	0,000	137,957	2445,493
1	0,000	137,957	2446,198
1	0,000	138,007	2446,902
1	0,000	138,057	2447,507
1	0,000	138,057	2448,212
1	0,000	138,108	2448,816
1	0,000	138,158	2449,521
1	0,000	138,158	2450,226
1	0,000	138,208	2450,830
1	0,000	138,258	2451,636
1	0,000	138,258	2452,441
1	0,000	138,309	2452,945
1	0,000	138,359	2453,650
1	0,000	138,359	2454,153
1	0,000	138,409	2454,959
1	0,000	138,459	2455,765
1	0,000	138,459	2456,369
1	0,000	138,509	2456,973
1	0,000	138,559	2457,779
1	0,000	138,559	2458,383
1	0,000	138,609	2459,189
1	0,000	138,659	2459,793
1	0,000	138,659	2460,498
1	0,000	138,709	2461,102
1	0,000	138,759	2461,807
1	0,000	138,759	2462,311
1	0,000	138,810	2463,217
1	0,000	138,860	2463,821
1	0,000	138,860	2464,426
1	0,000	138,911	2465,131
1	0,000	138,961	2465,836
1	0,000	138,961	2466,541
1	0,000	139,011	2467,245
1	0,000	139,061	2467,950
1	0,000	139,061	2468,555
1	0,000	139,111	2469,260
1	0,000	139,161	2469,864
1	0,000	139,161	2470,569
1	0,000	139,212	2471,274
1	0,000	139,262	2471,878
1	0,000	139,262	2472,382
1	0,000	139,311	2473,187
1	0,000	139,363	2473,892
1	0,000	139,363	2474,597
1	0,000	139,413	2475,302
1	0,000	139,463	2475,906
1	0,000	139,463	2476,712
1	0,000	139,513	2477,417
1	0,000	139,563	2478,021
1	0,000	139,563	2478,726
1	0,000	139,613	2479,633
1	0,000	139,613	2480,237
1	0,000	139,664	2480,942
1	0,000	139,714	2481,445
1	0,000	139,714	2482,150
1	0,000	139,764	2482,855
1	0,000	139,814	2483,661
1	0,000	139,814	2484,265
1	0,000	139,864	2484,869
1	0,000	139,911	2485,373
1	0,000	139,911	2485,776
1	0,000	139,949	2485,876
1	0,000	139,976	2486,581
1	0,000	139,976	2486,078
1	0,000	139,993	2486,481
1	0,000	139,999	2486,481
1	0,000	139,999	2486,481
