Col.n° Rot(deg) Lin(mm) CHR(um)
1	0,000	80,108	1893,713
1	0,000	80,108	1893,713
1	0,000	80,157	1893,713
1	0,000	80,157	1893,613
1	0,000	80,206	1893,512
1	0,000	80,257	1893,512
1	0,000	80,257	1893,915
1	0,000	80,307	1893,512
1	0,000	80,357	1893,311
1	0,000	80,357	1893,311
1	0,000	80,407	1893,311
1	0,000	80,457	1893,210
1	0,000	80,457	1893,210
1	0,000	80,508	1893,210
1	0,000	80,558	1893,210
1	0,000	80,558	1893,210
1	0,000	80,608	1893,411
1	0,000	80,659	1893,109
1	0,000	80,659	1893,008
1	0,000	80,709	1893,008
1	0,000	80,759	1893,008
1	0,000	80,759	1892,908
1	0,000	80,809	1892,908
1	0,000	80,859	1892,908
1	0,000	80,859	1892,908
1	0,000	80,910	1893,109
1	0,000	80,960	1892,807
1	0,000	80,960	1892,807
1	0,000	81,010	1892,908
1	0,000	81,060	1892,908
1	0,000	81,060	1892,908
1	0,000	81,110	1892,706
1	0,000	81,160	1892,807
1	0,000	81,160	1892,706
1	0,000	81,210	1892,606
1	0,000	81,260	1892,706
1	0,000	81,260	1892,606
1	0,000	81,310	1892,606
1	0,000	81,360	1892,505
1	0,000	81,360	1892,606
1	0,000	81,410	1892,606
1	0,000	81,460	1892,505
1	0,000	81,460	1892,404
1	0,000	81,511	1892,404
1	0,000	81,561	1892,404
1	0,000	81,561	1892,303
1	0,000	81,611	1892,505
1	0,000	81,661	1892,303
1	0,000	81,661	1892,303
1	0,000	81,711	1892,505
1	0,000	81,761	1892,303
1	0,000	81,761	1892,303
1	0,000	81,812	1892,203
1	0,000	81,862	1892,303
1	0,000	81,862	1892,102
1	0,000	81,912	1892,203
1	0,000	81,912	1892,303
1	0,000	81,963	1892,001
1	0,000	82,013	1891,901
1	0,000	82,062	1892,102
1	0,000	82,062	1892,001
1	0,000	82,112	1892,001
1	0,000	82,112	1892,001
1	0,000	82,163	1892,102
1	0,000	82,213	1892,001
1	0,000	82,213	1891,901
1	0,000	82,263	1891,901
1	0,000	82,313	1892,001
1	0,000	82,313	1891,699
1	0,000	82,363	1892,001
1	0,000	82,413	1892,102
1	0,000	82,464	1891,699
1	0,000	82,464	1892,001
1	0,000	82,514	1892,102
1	0,000	82,514	1891,800
1	0,000	82,564	1891,901
1	0,000	82,614	1891,901
1	0,000	82,614	1892,102
1	0,000	82,664	1891,901
1	0,000	82,715	1891,699
1	0,000	82,715	1891,800
1	0,000	82,764	1891,800
1	0,000	82,814	1891,800
1	0,000	82,814	1891,800
1	0,000	82,864	1891,699
1	0,000	82,914	1891,800
1	0,000	82,914	1891,901
1	0,000	82,965	1891,800
1	0,000	83,015	1891,800
1	0,000	83,015	1891,800
1	0,000	83,065	1891,901
1	0,000	83,115	1891,800
1	0,000	83,115	1891,699
1	0,000	83,165	1891,498
1	0,000	83,216	1891,599
1	0,000	83,216	1891,599
1	0,000	83,266	1891,699
1	0,000	83,316	1891,498
1	0,000	83,316	1891,599
1	0,000	83,366	1891,699
1	0,000	83,415	1891,599
1	0,000	83,415	1891,498
1	0,000	83,466	1891,599
1	0,000	83,516	1891,498
1	0,000	83,516	1891,599
1	0,000	83,566	1891,699
1	0,000	83,616	1891,498
1	0,000	83,616	1891,397
1	0,000	83,667	1891,599
1	0,000	83,717	1891,800
1	0,000	83,717	1891,599
1	0,000	83,766	1891,599
1	0,000	83,817	1891,599
1	0,000	83,817	1891,599
1	0,000	83,866	1891,699
1	0,000	83,917	1891,599
1	0,000	83,917	1891,599
1	0,000	83,967	1891,599
1	0,000	84,018	1891,498
1	0,000	84,018	1891,599
1	0,000	84,067	1891,599
1	0,000	84,117	1891,498
1	0,000	84,117	1891,498
1	0,000	84,167	1891,498
1	0,000	84,217	1891,599
1	0,000	84,217	1891,800
1	0,000	84,267	1891,599
1	0,000	84,318	1891,498
1	0,000	84,318	1891,498
1	0,000	84,368	1891,599
1	0,000	84,418	1891,498
1	0,000	84,418	1891,599
1	0,000	84,469	1891,699
1	0,000	84,519	1891,699
1	0,000	84,519	1891,599
1	0,000	84,569	1891,599
1	0,000	84,619	1891,599
1	0,000	84,619	1891,599
1	0,000	84,669	1891,599
1	0,000	84,719	1891,599
1	0,000	84,719	1891,699
1	0,000	84,769	1891,800
1	0,000	84,819	1891,599
1	0,000	84,819	1891,800
1	0,000	84,869	1891,599
1	0,000	84,920	1891,498
1	0,000	84,920	1891,699
1	0,000	84,969	1891,599
1	0,000	85,019	1891,800
1	0,000	85,019	1891,800
1	0,000	85,070	1891,800
1	0,000	85,119	1891,800
1	0,000	85,119	1891,800
1	0,000	85,170	1891,800
1	0,000	85,220	1891,800
1	0,000	85,220	1891,800
1	0,000	85,270	1891,800
1	0,000	85,321	1891,699
1	0,000	85,321	1891,800
1	0,000	85,370	1891,800
1	0,000	85,420	1891,800
1	0,000	85,420	1892,001
1	0,000	85,470	1892,001
1	0,000	85,521	1892,001
1	0,000	85,521	1891,800
1	0,000	85,571	1891,901
1	0,000	85,622	1891,800
1	0,000	85,622	1892,001
1	0,000	85,671	1891,901
1	0,000	85,722	1892,001
1	0,000	85,722	1891,800
1	0,000	85,772	1892,001
1	0,000	85,822	1891,901
1	0,000	85,822	1892,001
1	0,000	85,872	1892,001
1	0,000	85,922	1892,102
1	0,000	85,922	1892,102
1	0,000	85,972	1892,001
1	0,000	86,023	1892,102
1	0,000	86,023	1892,102
1	0,000	86,073	1892,102
1	0,000	86,123	1892,303
1	0,000	86,123	1892,303
1	0,000	86,173	1892,102
1	0,000	86,223	1892,102
1	0,000	86,223	1892,303
1	0,000	86,273	1892,203
1	0,000	86,324	1892,203
1	0,000	86,324	1892,303
1	0,000	86,374	1892,102
1	0,000	86,424	1892,203
1	0,000	86,424	1892,203
1	0,000	86,474	1892,404
1	0,000	86,524	1892,303
1	0,000	86,524	1892,505
1	0,000	86,574	1892,303
1	0,000	86,624	1892,303
1	0,000	86,624	1892,203
1	0,000	86,674	1892,203
1	0,000	86,725	1892,303
1	0,000	86,725	1892,303
1	0,000	86,775	1892,505
1	0,000	86,824	1892,303
1	0,000	86,824	1892,606
1	0,000	86,875	1892,606
1	0,000	86,925	1892,404
1	0,000	86,925	1892,606
1	0,000	86,975	1892,606
1	0,000	87,025	1892,706
1	0,000	87,025	1892,807
1	0,000	87,075	1892,807
1	0,000	87,125	1892,807
1	0,000	87,125	1892,908
1	0,000	87,175	1892,908
1	0,000	87,225	1892,908
1	0,000	87,225	1892,908
1	0,000	87,275	1892,908
1	0,000	87,325	1893,109
1	0,000	87,325	1893,008
1	0,000	87,376	1893,008
1	0,000	87,426	1893,008
1	0,000	87,426	1893,008
1	0,000	87,477	1892,908
1	0,000	87,527	1892,807
1	0,000	87,527	1893,008
1	0,000	87,577	1893,311
1	0,000	87,626	1893,210
1	0,000	87,626	1893,311
1	0,000	87,677	1893,411
1	0,000	87,677	1893,512
1	0,000	87,727	1893,411
1	0,000	87,777	1893,512
1	0,000	87,827	1893,411
1	0,000	87,827	1893,512
1	0,000	87,877	1893,512
1	0,000	87,877	1893,512
1	0,000	87,926	1893,512
1	0,000	87,977	1893,613
1	0,000	87,977	1893,713
1	0,000	88,027	1893,713
1	0,000	88,077	1893,814
1	0,000	88,077	1893,814
1	0,000	88,127	1893,814
1	0,000	88,177	1894,016
1	0,000	88,177	1894,116
1	0,000	88,227	1894,217
1	0,000	88,277	1894,217
1	0,000	88,277	1894,217
1	0,000	88,328	1894,116
1	0,000	88,377	1894,217
1	0,000	88,377	1894,418
1	0,000	88,428	1894,318
1	0,000	88,478	1894,318
1	0,000	88,478	1894,318
1	0,000	88,528	1894,418
1	0,000	88,578	1894,418
1	0,000	88,578	1894,418
1	0,000	88,628	1894,720
1	0,000	88,678	1894,519
1	0,000	88,678	1894,720
1	0,000	88,729	1894,620
1	0,000	88,779	1895,325
1	0,000	88,779	1894,821
1	0,000	88,829	1894,922
1	0,000	88,879	1894,821
1	0,000	88,879	1894,922
1	0,000	88,930	1894,922
1	0,000	88,980	1895,023
1	0,000	88,980	1895,023
1	0,000	89,030	1895,123
1	0,000	89,081	1895,123
1	0,000	89,081	1895,224
1	0,000	89,131	1895,224
1	0,000	89,181	1895,325
1	0,000	89,181	1895,325
1	0,000	89,231	1895,425
1	0,000	89,282	1895,526
1	0,000	89,282	1895,627
1	0,000	89,332	1895,627
1	0,000	89,382	1895,627
1	0,000	89,382	1895,828
1	0,000	89,432	1895,728
1	0,000	89,483	1896,030
1	0,000	89,483	1896,030
1	0,000	89,533	1896,030
1	0,000	89,583	1895,929
1	0,000	89,583	1896,030
1	0,000	89,633	1896,130
1	0,000	89,684	1896,130
1	0,000	89,684	1896,130
1	0,000	89,734	1896,231
1	0,000	89,784	1896,332
1	0,000	89,784	1896,332
1	0,000	89,834	1896,533
1	0,000	89,884	1896,432
1	0,000	89,884	1896,533
1	0,000	89,934	1896,634
1	0,000	89,984	1896,735
1	0,000	89,984	1896,735
1	0,000	90,035	1896,835
1	0,000	90,084	1896,030
1	0,000	90,084	1897,037
1	0,000	90,135	1897,037
1	0,000	90,185	1897,137
1	0,000	90,185	1897,137
1	0,000	90,235	1897,037
1	0,000	90,285	1897,137
1	0,000	90,285	1897,339
1	0,000	90,336	1897,238
1	0,000	90,386	1897,238
1	0,000	90,386	1897,440
1	0,000	90,436	1897,943
1	0,000	90,487	1897,540
1	0,000	90,487	1897,742
1	0,000	90,537	1897,842
1	0,000	90,587	1897,943
1	0,000	90,587	1897,943
1	0,000	90,637	1898,044
1	0,000	90,687	1898,044
1	0,000	90,687	1898,245
1	0,000	90,737	1898,245
1	0,000	90,787	1898,346
1	0,000	90,787	1898,447
1	0,000	90,838	1898,547
1	0,000	90,887	1898,547
1	0,000	90,887	1898,547
1	0,000	90,938	1898,648
1	0,000	90,988	1898,749
1	0,000	90,988	1898,749
1	0,000	91,037	1898,849
1	0,000	91,088	1898,950
1	0,000	91,088	1899,051
1	0,000	91,138	1899,051
1	0,000	91,188	1899,152
1	0,000	91,188	1899,252
1	0,000	91,239	1899,353
1	0,000	91,289	1899,454
1	0,000	91,289	1899,353
1	0,000	91,338	1899,454
1	0,000	91,388	1899,554
1	0,000	91,388	1899,655
1	0,000	91,439	1899,756
1	0,000	91,489	1899,857
1	0,000	91,489	1899,957
1	0,000	91,539	1899,957
1	0,000	91,589	1900,058
1	0,000	91,589	1900,159
1	0,000	91,639	1900,159
1	0,000	91,689	1900,360
1	0,000	91,689	1900,360
1	0,000	91,740	1900,461
1	0,000	91,790	1900,461
1	0,000	91,790	1900,562
1	0,000	91,840	1900,662
1	0,000	91,890	1900,662
1	0,000	91,890	1900,662
1	0,000	91,940	1900,864
1	0,000	91,990	1901,065
1	0,000	91,990	1901,065
1	0,000	92,040	1901,065
1	0,000	92,091	1901,266
1	0,000	92,091	1901,367
1	0,000	92,140	1901,367
1	0,000	92,140	1901,468
1	0,000	92,191	1901,569
1	0,000	92,241	1901,669
1	0,000	92,291	1901,770
1	0,000	92,291	1901,871
1	0,000	92,341	1901,971
1	0,000	92,391	1902,072
1	0,000	92,391	1902,173
1	0,000	92,441	1902,274
1	0,000	92,441	1902,374
1	0,000	92,491	1902,374
1	0,000	92,542	1902,576
1	0,000	92,542	1902,676
1	0,000	92,592	1902,676
1	0,000	92,643	1902,878
1	0,000	92,643	1902,979
1	0,000	92,692	1903,079
1	0,000	92,743	1903,180
1	0,000	92,743	1903,180
1	0,000	92,793	1903,381
1	0,000	92,843	1903,482
1	0,000	92,843	1903,482
1	0,000	92,893	1903,583
1	0,000	92,943	1903,784
1	0,000	92,943	1903,784
1	0,000	92,994	1903,885
1	0,000	93,043	1904,086
1	0,000	93,043	1904,187
1	0,000	93,093	1904,388
1	0,000	93,143	1904,388
1	0,000	93,143	1904,489
1	0,000	93,193	1904,590
1	0,000	93,244	1904,691
1	0,000	93,244	1904,691
1	0,000	93,294	1904,791
1	0,000	93,345	1904,892
1	0,000	93,345	1904,892
1	0,000	93,395	1905,295
1	0,000	93,445	1905,194
1	0,000	93,445	1905,396
1	0,000	93,495	1905,396
1	0,000	93,545	1905,396
1	0,000	93,545	1905,597
1	0,000	93,595	1905,698
1	0,000	93,645	1905,698
1	0,000	93,645	1905,798
1	0,000	93,696	1905,899
1	0,000	93,746	1906,000
1	0,000	93,746	1906,100
1	0,000	93,796	1906,201
1	0,000	93,847	1906,302
1	0,000	93,847	1906,503
1	0,000	93,896	1906,503
1	0,000	93,947	1906,705
1	0,000	93,947	1906,805
1	0,000	93,997	1906,906
1	0,000	94,046	1907,007
1	0,000	94,046	1907,208
1	0,000	94,097	1907,309
1	0,000	94,147	1907,410
1	0,000	94,147	1907,510
1	0,000	94,197	1907,611
1	0,000	94,248	1907,712
1	0,000	94,248	1907,812
1	0,000	94,298	1908,014
1	0,000	94,348	1908,115
1	0,000	94,348	1908,115
1	0,000	94,398	1908,215
1	0,000	94,448	1908,417
1	0,000	94,448	1908,517
1	0,000	94,499	1908,618
1	0,000	94,549	1908,719
1	0,000	94,549	1908,820
1	0,000	94,599	1909,021
1	0,000	94,649	1909,021
1	0,000	94,649	1909,222
1	0,000	94,699	1909,323
1	0,000	94,749	1909,525
1	0,000	94,749	1909,625
1	0,000	94,799	1909,625
1	0,000	94,850	1909,827
1	0,000	94,850	1909,827
1	0,000	94,899	1910,028
1	0,000	94,950	1910,129
1	0,000	94,950	1910,330
1	0,000	95,001	1910,431
1	0,000	95,050	1910,632
1	0,000	95,050	1910,733
1	0,000	95,100	1910,834
1	0,000	95,151	1910,934
1	0,000	95,151	1911,136
1	0,000	95,201	1911,237
1	0,000	95,251	1911,337
1	0,000	95,251	1911,438
1	0,000	95,301	1911,639
1	0,000	95,351	1911,740
1	0,000	95,351	1911,841
1	0,000	95,402	1911,942
1	0,000	95,452	1912,244
1	0,000	95,452	1912,344
1	0,000	95,502	1912,445
1	0,000	95,552	1912,546
1	0,000	95,552	1912,747
1	0,000	95,602	1912,848
1	0,000	95,653	1913,049
1	0,000	95,653	1913,150
1	0,000	95,703	1913,251
1	0,000	95,753	1913,452
1	0,000	95,753	1913,553
1	0,000	95,803	1913,654
1	0,000	95,853	1913,754
1	0,000	95,853	1913,956
1	0,000	95,904	1914,157
1	0,000	95,954	1914,258
1	0,000	95,954	1914,459
1	0,000	96,004	1914,661
1	0,000	96,054	1914,761
1	0,000	96,054	1914,862
1	0,000	96,103	1914,862
1	0,000	96,153	1914,963
1	0,000	96,153	1915,164
1	0,000	96,203	1915,265
1	0,000	96,253	1915,366
1	0,000	96,253	1915,466
1	0,000	96,304	1915,567
1	0,000	96,354	1915,768
1	0,000	96,354	1915,970
1	0,000	96,404	1916,071
1	0,000	96,404	1916,171
1	0,000	96,455	1916,373
1	0,000	96,505	1916,574
1	0,000	96,555	1916,675
1	0,000	96,555	1916,876
1	0,000	96,605	1916,977
1	0,000	96,656	1917,178
1	0,000	96,656	1917,279
1	0,000	96,705	1917,380
1	0,000	96,705	1917,581
1	0,000	96,756	1917,682
1	0,000	96,806	1917,883
1	0,000	96,856	1918,085
1	0,000	96,856	1918,185
1	0,000	96,906	1918,286
1	0,000	96,906	1918,488
1	0,000	96,956	1918,689
1	0,000	97,006	1918,689
1	0,000	97,006	1918,890
1	0,000	97,056	1919,092
1	0,000	97,106	1919,193
1	0,000	97,156	1919,193
1	0,000	97,156	1919,394
1	0,000	97,206	1919,495
1	0,000	97,206	1919,696
1	0,000	97,257	1919,897
1	0,000	97,307	1919,998
1	0,000	97,307	1920,200
1	0,000	97,357	1920,300
1	0,000	97,407	1920,602
1	0,000	97,407	1920,703
1	0,000	97,457	1920,804
1	0,000	97,507	1921,005
1	0,000	97,507	1921,106
1	0,000	97,557	1921,307
1	0,000	97,607	1921,509
1	0,000	97,607	1921,710
1	0,000	97,657	1921,710
1	0,000	97,708	1922,012
1	0,000	97,708	1922,113
1	0,000	97,757	1922,314
1	0,000	97,807	1922,516
1	0,000	97,807	1922,818
1	0,000	97,857	1922,919
1	0,000	97,907	1923,019
1	0,000	97,907	1923,221
1	0,000	97,958	1923,322
1	0,000	98,008	1923,523
1	0,000	98,008	1923,724
1	0,000	98,058	1923,825
1	0,000	98,108	1923,926
1	0,000	98,108	1924,228
1	0,000	98,158	1924,429
1	0,000	98,209	1924,530
1	0,000	98,209	1924,731
1	0,000	98,259	1924,933
1	0,000	98,309	1925,034
1	0,000	98,309	1925,235
1	0,000	98,359	1925,436
1	0,000	98,409	1925,638
1	0,000	98,409	1925,839
1	0,000	98,459	1925,940
1	0,000	98,509	1926,041
1	0,000	98,509	1926,343
1	0,000	98,559	1926,443
1	0,000	98,609	1926,645
1	0,000	98,609	1926,846
1	0,000	98,659	1927,048
1	0,000	98,710	1927,148
1	0,000	98,710	1927,350
1	0,000	98,760	1927,652
1	0,000	98,811	1927,652
1	0,000	98,811	1927,853
1	0,000	98,861	1928,055
1	0,000	98,911	1928,156
1	0,000	98,911	1928,256
1	0,000	98,961	1928,458
1	0,000	99,011	1928,760
1	0,000	99,011	1928,961
1	0,000	99,061	1929,062
1	0,000	99,111	1929,263
1	0,000	99,111	1929,465
1	0,000	99,161	1929,767
1	0,000	99,211	1929,868
1	0,000	99,211	1930,069
1	0,000	99,261	1930,170
1	0,000	99,312	1930,472
1	0,000	99,312	1930,573
1	0,000	99,362	1930,673
1	0,000	99,412	1930,975
1	0,000	99,412	1931,076
1	0,000	99,461	1931,277
1	0,000	99,512	1931,479
1	0,000	99,512	1931,580
1	0,000	99,562	1931,680
1	0,000	99,612	1931,982
1	0,000	99,612	1932,083
1	0,000	99,663	1932,385
1	0,000	99,713	1932,587
1	0,000	99,713	1932,788
1	0,000	99,763	1932,889
1	0,000	99,813	1933,090
1	0,000	99,813	1933,292
1	0,000	99,863	1933,493
1	0,000	99,914	1933,594
1	0,000	99,914	1933,795
1	0,000	99,964	1933,896
1	0,000	100,014	1934,198
1	0,000	100,014	1934,399
1	0,000	100,064	1934,601
1	0,000	100,114	1934,802
1	0,000	100,114	1935,004
1	0,000	100,164	1935,205
1	0,000	100,215	1935,306
1	0,000	100,215	1935,608
1	0,000	100,265	1935,809
1	0,000	100,315	1936,011
1	0,000	100,315	1936,212
1	0,000	100,365	1936,414
1	0,000	100,415	1936,514
1	0,000	100,415	1936,816
1	0,000	100,466	1936,917
1	0,000	100,516	1937,219
1	0,000	100,516	1937,320
1	0,000	100,566	1937,622
1	0,000	100,616	1937,823
1	0,000	100,616	1938,025
1	0,000	100,667	1938,226
1	0,000	100,717	1938,428
1	0,000	100,717	1938,629
1	0,000	100,767	1938,831
1	0,000	100,817	1939,032
1	0,000	100,817	1939,233
1	0,000	100,867	1939,536
1	0,000	100,917	1939,636
1	0,000	100,917	1939,838
1	0,000	100,967	1940,140
1	0,000	101,017	1940,240
1	0,000	101,017	1940,543
1	0,000	101,067	1940,744
1	0,000	101,117	1940,845
1	0,000	101,117	1941,147
1	0,000	101,167	1941,348
1	0,000	101,217	1941,550
1	0,000	101,217	1941,852
1	0,000	101,268	1942,053
1	0,000	101,318	1942,154
1	0,000	101,318	1942,355
1	0,000	101,368	1942,657
1	0,000	101,417	1942,758
1	0,000	101,417	1943,060
1	0,000	101,468	1943,262
1	0,000	101,518	1943,564
1	0,000	101,518	1943,765
1	0,000	101,568	1943,967
1	0,000	101,619	1944,168
1	0,000	101,619	1944,370
1	0,000	101,669	1944,672
1	0,000	101,719	1944,873
1	0,000	101,719	1945,074
1	0,000	101,768	1945,276
1	0,000	101,819	1945,477
1	0,000	101,819	1945,679
1	0,000	101,869	1945,880
1	0,000	101,919	1946,182
1	0,000	101,919	1946,384
1	0,000	101,969	1946,585
1	0,000	102,020	1946,887
1	0,000	102,020	1947,089
1	0,000	102,070	1947,290
1	0,000	102,070	1947,491
1	0,000	102,120	1947,693
1	0,000	102,170	1947,894
1	0,000	102,170	1948,096
1	0,000	102,221	1948,297
1	0,000	102,270	1948,599
1	0,000	102,320	1948,801
1	0,000	102,320	1949,002
1	0,000	102,370	1949,304
1	0,000	102,420	1949,506
1	0,000	102,420	1949,808
1	0,000	102,470	1950,009
1	0,000	102,470	1950,110
1	0,000	102,520	1950,412
1	0,000	102,570	1950,613
1	0,000	102,570	1950,815
1	0,000	102,621	1951,016
1	0,000	102,671	1951,218
1	0,000	102,671	1951,520
1	0,000	102,721	1951,721
1	0,000	102,771	1951,923
1	0,000	102,771	1952,225
1	0,000	102,821	1952,325
1	0,000	102,872	1952,628
1	0,000	102,872	1952,829
1	0,000	102,922	1953,030
1	0,000	102,972	1953,232
1	0,000	102,972	1953,433
1	0,000	103,022	1953,635
1	0,000	103,072	1953,836
1	0,000	103,072	1954,138
1	0,000	103,122	1954,340
1	0,000	103,172	1954,541
1	0,000	103,172	1954,742
1	0,000	103,223	1955,045
1	0,000	103,273	1955,246
1	0,000	103,273	1955,548
1	0,000	103,323	1955,750
1	0,000	103,373	1956,052
1	0,000	103,373	1956,253
1	0,000	103,423	1956,555
1	0,000	103,473	1956,757
1	0,000	103,473	1957,059
1	0,000	103,524	1957,159
1	0,000	103,574	1957,462
1	0,000	103,574	1957,764
1	0,000	103,624	1957,965
1	0,000	103,674	1958,267
1	0,000	103,674	1958,368
1	0,000	103,724	1958,771
1	0,000	103,774	1958,972
1	0,000	103,774	1959,174
1	0,000	103,824	1959,476
1	0,000	103,875	1959,677
1	0,000	103,875	1959,879
1	0,000	103,924	1960,181
1	0,000	103,975	1960,382
1	0,000	103,975	1960,583
1	0,000	104,025	1960,886
1	0,000	104,075	1961,087
1	0,000	104,075	1961,389
1	0,000	104,124	1961,691
1	0,000	104,175	1961,893
1	0,000	104,175	1962,094
1	0,000	104,225	1962,497
1	0,000	104,275	1962,698
1	0,000	104,275	1962,900
1	0,000	104,325	1963,202
1	0,000	104,375	1963,504
1	0,000	104,375	1963,806
1	0,000	104,425	1964,008
1	0,000	104,475	1964,209
1	0,000	104,475	1964,410
1	0,000	104,526	1964,813
1	0,000	104,575	1964,813
1	0,000	104,575	1965,216
1	0,000	104,626	1965,317
1	0,000	104,676	1965,820
1	0,000	104,676	1966,022
1	0,000	104,726	1966,223
1	0,000	104,775	1966,525
1	0,000	104,775	1966,827
1	0,000	104,825	1967,029
1	0,000	104,876	1967,331
1	0,000	104,876	1967,633
1	0,000	104,926	1967,834
1	0,000	104,976	1968,137
1	0,000	104,976	1968,439
1	0,000	105,027	1968,741
1	0,000	105,076	1968,942
1	0,000	105,076	1969,144
1	0,000	105,126	1969,547
1	0,000	105,176	1969,748
1	0,000	105,176	1970,151
1	0,000	105,227	1970,251
1	0,000	105,278	1970,554
1	0,000	105,278	1970,856
1	0,000	105,327	1971,158
1	0,000	105,377	1971,359
1	0,000	105,377	1971,561
1	0,000	105,427	1971,964
1	0,000	105,478	1972,266
1	0,000	105,478	1972,467
1	0,000	105,527	1972,870
1	0,000	105,578	1972,971
1	0,000	105,578	1973,273
1	0,000	105,628	1973,575
1	0,000	105,678	1973,776
1	0,000	105,678	1974,078
1	0,000	105,728	1974,380
1	0,000	105,778	1974,481
1	0,000	105,778	1974,783
1	0,000	105,828	1975,287
1	0,000	105,878	1975,790
1	0,000	105,878	1975,790
1	0,000	105,929	1975,891
1	0,000	105,979	1976,294
1	0,000	105,979	1976,495
1	0,000	106,029	1976,797
1	0,000	106,079	1977,100
1	0,000	106,079	1977,301
1	0,000	106,129	1977,603
1	0,000	106,179	1977,905
1	0,000	106,179	1978,207
1	0,000	106,230	1978,510
1	0,000	106,280	1978,812
1	0,000	106,280	1979,114
1	0,000	106,330	1979,416
1	0,000	106,379	1979,718
1	0,000	106,379	1980,020
1	0,000	106,430	1980,222
1	0,000	106,480	1980,624
1	0,000	106,480	1980,826
1	0,000	106,530	1981,128
1	0,000	106,580	1981,430
1	0,000	106,580	1981,732
1	0,000	106,630	1982,034
1	0,000	106,681	1982,336
1	0,000	106,681	1982,639
1	0,000	106,731	1982,941
1	0,000	106,781	1983,344
1	0,000	106,781	1983,545
1	0,000	106,832	1983,847
1	0,000	106,882	1984,149
1	0,000	106,882	1984,552
1	0,000	106,932	1984,753
1	0,000	106,982	1985,156
1	0,000	106,982	1985,358
1	0,000	107,032	1985,760
1	0,000	107,083	1986,063
1	0,000	107,083	1986,264
1	0,000	107,133	1986,465
1	0,000	107,184	1987,170
1	0,000	107,184	1987,372
1	0,000	107,234	1988,077
1	0,000	107,284	1987,976
1	0,000	107,284	1988,379
1	0,000	107,334	1988,480
1	0,000	107,384	1988,882
1	0,000	107,384	1989,185
1	0,000	107,434	1989,386
1	0,000	107,484	1989,688
1	0,000	107,484	1989,890
1	0,000	107,534	1990,192
1	0,000	107,585	1990,494
1	0,000	107,585	1990,796
1	0,000	107,635	1990,997
1	0,000	107,685	1991,400
1	0,000	107,685	1991,702
1	0,000	107,736	1991,904
1	0,000	107,736	1992,206
1	0,000	107,786	1992,508
1	0,000	107,835	1992,810
1	0,000	107,835	1993,213
1	0,000	107,886	1993,515
1	0,000	107,936	1993,817
1	0,000	107,936	1994,220
1	0,000	107,986	1994,421
1	0,000	108,037	1994,824
1	0,000	108,037	1995,126
1	0,000	108,087	1995,428
1	0,000	108,137	1995,831
1	0,000	108,137	1996,133
1	0,000	108,187	1996,335
1	0,000	108,237	1996,637
1	0,000	108,237	1997,040
1	0,000	108,287	1997,342
1	0,000	108,338	1997,644
1	0,000	108,338	1998,047
1	0,000	108,389	1998,349
1	0,000	108,439	1998,651
1	0,000	108,439	1998,953
1	0,000	108,489	1999,356
1	0,000	108,539	1999,658
1	0,000	108,539	2000,162
1	0,000	108,589	2000,363
1	0,000	108,640	2000,565
1	0,000	108,640	2000,967
1	0,000	108,690	2001,270
1	0,000	108,740	2001,471
1	0,000	108,740	2001,874
1	0,000	108,790	2002,176
1	0,000	108,840	2002,478
1	0,000	108,840	2002,881
1	0,000	108,890	2003,284
1	0,000	108,940	2003,888
1	0,000	108,940	2003,888
1	0,000	108,990	2004,089
1	0,000	109,041	2004,492
1	0,000	109,041	2004,694
1	0,000	109,091	2005,096
1	0,000	109,140	2005,399
1	0,000	109,140	2005,801
1	0,000	109,191	2006,104
1	0,000	109,240	2006,506
1	0,000	109,240	2006,808
1	0,000	109,290	2007,211
1	0,000	109,341	2007,614
1	0,000	109,341	2007,916
1	0,000	109,391	2008,218
1	0,000	109,441	2008,521
1	0,000	109,441	2008,823
1	0,000	109,491	2009,125
1	0,000	109,541	2009,628
1	0,000	109,541	2009,930
1	0,000	109,591	2010,233
1	0,000	109,641	2010,535
1	0,000	109,641	2010,937
1	0,000	109,692	2011,240
1	0,000	109,742	2011,542
1	0,000	109,742	2011,844
1	0,000	109,791	2012,347
1	0,000	109,841	2012,549
1	0,000	109,841	2012,851
1	0,000	109,892	2013,254
1	0,000	109,942	2013,556
1	0,000	109,942	2013,858
1	0,000	109,991	2014,261
1	0,000	110,042	2014,664
1	0,000	110,042	2014,966
1	0,000	110,092	2015,268
1	0,000	110,141	2015,671
1	0,000	110,141	2015,973
1	0,000	110,192	2016,376
1	0,000	110,242	2016,678
1	0,000	110,242	2016,980
1	0,000	110,292	2017,383
1	0,000	110,342	2017,685
1	0,000	110,342	2018,088
1	0,000	110,392	2018,491
1	0,000	110,442	2018,893
1	0,000	110,442	2019,196
1	0,000	110,493	2019,598
1	0,000	110,543	2019,901
1	0,000	110,543	2020,203
1	0,000	110,593	2020,605
1	0,000	110,644	2020,908
1	0,000	110,644	2021,310
1	0,000	110,694	2021,613
1	0,000	110,744	2021,915
1	0,000	110,744	2022,318
1	0,000	110,794	2022,519
1	0,000	110,845	2022,922
1	0,000	110,845	2023,123
1	0,000	110,895	2023,526
1	0,000	110,945	2023,828
1	0,000	110,945	2024,231
1	0,000	110,995	2024,533
1	0,000	111,045	2024,936
1	0,000	111,045	2025,238
1	0,000	111,096	2025,540
1	0,000	111,146	2025,943
1	0,000	111,146	2026,346
1	0,000	111,197	2026,749
1	0,000	111,247	2027,051
1	0,000	111,247	2027,353
1	0,000	111,297	2027,756
1	0,000	111,347	2028,058
1	0,000	111,347	2028,360
1	0,000	111,397	2028,763
1	0,000	111,448	2029,166
1	0,000	111,448	2029,568
1	0,000	111,498	2029,871
1	0,000	111,549	2030,273
1	0,000	111,549	2030,676
1	0,000	111,599	2030,978
1	0,000	111,599	2031,381
1	0,000	111,649	2031,784
1	0,000	111,699	2032,187
1	0,000	111,699	2032,590
1	0,000	111,749	2032,993
1	0,000	111,799	2033,395
1	0,000	111,799	2033,798
1	0,000	111,849	2034,100
1	0,000	111,900	2034,503
1	0,000	111,900	2034,805
1	0,000	111,949	2035,208
1	0,000	111,999	2035,510
1	0,000	111,999	2035,812
1	0,000	112,049	2036,115
1	0,000	112,100	2036,316
1	0,000	112,100	2036,819
1	0,000	112,149	2037,122
1	0,000	112,199	2037,424
1	0,000	112,199	2037,827
1	0,000	112,250	2038,129
1	0,000	112,300	2038,531
1	0,000	112,300	2038,934
1	0,000	112,350	2039,236
1	0,000	112,400	2039,639
1	0,000	112,400	2039,941
1	0,000	112,450	2040,344
1	0,000	112,501	2040,747
1	0,000	112,501	2041,150
1	0,000	112,551	2041,452
1	0,000	112,600	2041,855
1	0,000	112,600	2042,258
1	0,000	112,651	2042,661
1	0,000	112,701	2043,063
1	0,000	112,701	2043,466
1	0,000	112,751	2043,869
1	0,000	112,801	2044,070
1	0,000	112,801	2044,675
1	0,000	112,851	2045,078
1	0,000	112,901	2045,380
1	0,000	112,901	2045,984
1	0,000	112,951	2046,387
1	0,000	113,001	2046,790
1	0,000	113,001	2047,092
1	0,000	113,052	2047,394
1	0,000	113,101	2047,696
1	0,000	113,101	2048,099
1	0,000	113,152	2048,300
1	0,000	113,202	2048,703
1	0,000	113,202	2049,106
1	0,000	113,252	2049,408
1	0,000	113,302	2049,811
1	0,000	113,302	2050,214
1	0,000	113,352	2050,616
1	0,000	113,401	2051,019
1	0,000	113,401	2051,321
1	0,000	113,451	2051,724
1	0,000	113,502	2052,127
1	0,000	113,502	2052,429
1	0,000	113,552	2052,832
1	0,000	113,602	2053,235
1	0,000	113,602	2053,638
1	0,000	113,651	2054,041
1	0,000	113,702	2054,443
1	0,000	113,702	2054,846
1	0,000	113,752	2055,350
1	0,000	113,802	2055,652
1	0,000	113,802	2056,055
1	0,000	113,852	2056,458
1	0,000	113,902	2056,860
1	0,000	113,902	2057,263
1	0,000	113,952	2057,565
1	0,000	114,002	2058,069
1	0,000	114,002	2058,472
1	0,000	114,053	2058,774
1	0,000	114,102	2059,277
1	0,000	114,102	2059,680
1	0,000	114,152	2060,083
1	0,000	114,202	2060,385
1	0,000	114,202	2060,788
1	0,000	114,253	2061,292
1	0,000	114,303	2061,594
1	0,000	114,303	2061,996
1	0,000	114,353	2062,500
1	0,000	114,404	2062,802
1	0,000	114,404	2063,205
1	0,000	114,454	2063,608
1	0,000	114,505	2064,011
1	0,000	114,505	2064,514
1	0,000	114,555	2064,917
1	0,000	114,605	2065,219
1	0,000	114,605	2065,723
1	0,000	114,655	2066,125
1	0,000	114,705	2066,629
1	0,000	114,705	2067,032
1	0,000	114,755	2067,435
1	0,000	114,805	2067,838
1	0,000	114,805	2068,240
1	0,000	114,855	2068,643
1	0,000	114,905	2069,147
1	0,000	114,905	2069,550
1	0,000	114,955	2069,952
1	0,000	115,005	2070,355
1	0,000	115,005	2070,758
1	0,000	115,055	2071,161
1	0,000	115,105	2071,564
1	0,000	115,105	2071,967
1	0,000	115,155	2072,269
1	0,000	115,205	2072,772
1	0,000	115,205	2073,276
1	0,000	115,255	2073,679
1	0,000	115,306	2073,981
1	0,000	115,306	2074,384
1	0,000	115,356	2074,786
1	0,000	115,406	2075,189
1	0,000	115,406	2075,592
1	0,000	115,456	2075,995
1	0,000	115,506	2076,498
1	0,000	115,506	2076,801
1	0,000	115,556	2077,304
1	0,000	115,606	2077,808
1	0,000	115,606	2078,210
1	0,000	115,656	2078,714
1	0,000	115,707	2079,117
1	0,000	115,707	2079,520
1	0,000	115,756	2079,922
1	0,000	115,806	2080,325
1	0,000	115,806	2080,728
1	0,000	115,856	2081,232
1	0,000	115,907	2081,635
1	0,000	115,907	2081,937
1	0,000	115,957	2082,440
1	0,000	116,006	2082,843
1	0,000	116,006	2083,145
1	0,000	116,057	2083,649
1	0,000	116,107	2084,052
1	0,000	116,107	2084,454
1	0,000	116,157	2084,857
1	0,000	116,207	2085,260
1	0,000	116,207	2085,663
1	0,000	116,257	2086,066
1	0,000	116,307	2086,569
1	0,000	116,307	2086,972
1	0,000	116,357	2087,274
1	0,000	116,407	2087,878
1	0,000	116,407	2088,181
1	0,000	116,457	2088,684
1	0,000	116,508	2088,986
1	0,000	116,508	2089,490
1	0,000	116,558	2089,893
1	0,000	116,608	2090,396
1	0,000	116,608	2090,900
1	0,000	116,658	2091,202
1	0,000	116,708	2091,705
1	0,000	116,708	2092,108
1	0,000	116,758	2092,612
1	0,000	116,809	2093,015
1	0,000	116,809	2093,518
1	0,000	116,859	2093,820
1	0,000	116,909	2094,223
1	0,000	116,909	2094,626
1	0,000	116,959	2095,230
1	0,000	117,010	2095,532
1	0,000	117,010	2096,036
1	0,000	117,059	2096,439
1	0,000	117,109	2096,841
1	0,000	117,109	2097,446
1	0,000	117,159	2097,849
1	0,000	117,209	2098,251
1	0,000	117,209	2098,553
1	0,000	117,259	2099,057
1	0,000	117,309	2099,359
1	0,000	117,309	2099,963
1	0,000	117,360	2100,266
1	0,000	117,410	2100,769
1	0,000	117,410	2101,172
1	0,000	117,460	2101,575
1	0,000	117,510	2101,978
1	0,000	117,510	2102,380
1	0,000	117,560	2102,985
1	0,000	117,610	2103,488
1	0,000	117,610	2103,992
1	0,000	117,660	2104,294
1	0,000	117,710	2104,697
1	0,000	117,710	2105,099
1	0,000	117,760	2105,603
1	0,000	117,810	2106,006
1	0,000	117,810	2106,409
1	0,000	117,860	2106,912
1	0,000	117,910	2107,315
1	0,000	117,910	2107,819
1	0,000	117,960	2108,221
1	0,000	118,011	2108,725
1	0,000	118,011	2109,128
1	0,000	118,061	2109,631
1	0,000	118,111	2110,034
1	0,000	118,111	2110,538
1	0,000	118,161	2110,941
1	0,000	118,211	2111,444
1	0,000	118,211	2111,746
1	0,000	118,261	2112,350
1	0,000	118,311	2112,854
1	0,000	118,311	2113,257
1	0,000	118,361	2113,660
1	0,000	118,411	2114,163
1	0,000	118,411	2114,566
1	0,000	118,462	2115,070
1	0,000	118,512	2115,472
1	0,000	118,512	2115,976
1	0,000	118,563	2116,379
1	0,000	118,613	2116,882
1	0,000	118,613	2117,285
1	0,000	118,663	2117,789
1	0,000	118,663	2118,192
1	0,000	118,712	2118,695
1	0,000	118,763	2119,098
1	0,000	118,763	2119,601
1	0,000	118,812	2120,004
1	0,000	118,863	2120,508
1	0,000	118,863	2121,011
1	0,000	118,912	2121,313
1	0,000	118,962	2121,918
1	0,000	118,962	2122,421
1	0,000	119,012	2122,925
1	0,000	119,063	2123,328
1	0,000	119,112	2123,730
1	0,000	119,112	2124,234
1	0,000	119,163	2124,738
1	0,000	119,163	2125,241
1	0,000	119,213	2125,543
1	0,000	119,263	2126,047
1	0,000	119,263	2126,550
1	0,000	119,313	2127,054
1	0,000	119,363	2127,457
1	0,000	119,363	2127,960
1	0,000	119,413	2128,464
1	0,000	119,463	2128,967
1	0,000	119,463	2129,370
1	0,000	119,513	2129,874
1	0,000	119,564	2130,377
1	0,000	119,564	2130,780
1	0,000	119,614	2131,284
1	0,000	119,664	2131,787
1	0,000	119,664	2132,190
1	0,000	119,714	2132,693
1	0,000	119,764	2133,096
1	0,000	119,764	2133,600
1	0,000	119,814	2134,003
1	0,000	119,865	2134,406
1	0,000	119,865	2134,909
1	0,000	119,914	2135,413
1	0,000	119,965	2135,815
1	0,000	119,965	2136,218
1	0,000	120,016	2136,923
1	0,000	120,066	2137,427
1	0,000	120,066	2137,830
1	0,000	120,116	2138,434
1	0,000	120,166	2138,937
1	0,000	120,166	2139,441
1	0,000	120,216	2139,844
1	0,000	120,266	2140,347
1	0,000	120,266	2140,750
1	0,000	120,317	2141,254
1	0,000	120,368	2141,656
1	0,000	120,368	2142,160
1	0,000	120,418	2142,563
1	0,000	120,468	2143,066
1	0,000	120,468	2143,570
1	0,000	120,518	2143,973
1	0,000	120,568	2144,476
1	0,000	120,568	2144,980
1	0,000	120,618	2145,483
1	0,000	120,669	2145,987
1	0,000	120,669	2146,390
1	0,000	120,718	2146,994
1	0,000	120,768	2147,397
1	0,000	120,768	2147,900
1	0,000	120,819	2148,404
1	0,000	120,869	2148,807
1	0,000	120,869	2149,411
1	0,000	120,919	2149,915
1	0,000	120,970	2150,317
1	0,000	120,970	2150,821
1	0,000	121,020	2151,324
1	0,000	121,071	2151,727
1	0,000	121,071	2152,231
1	0,000	121,121	2152,734
1	0,000	121,171	2153,339
1	0,000	121,171	2153,641
1	0,000	121,220	2154,144
1	0,000	121,271	2154,648
1	0,000	121,271	2155,151
1	0,000	121,321	2155,756
1	0,000	121,371	2156,158
1	0,000	121,371	2156,662
1	0,000	121,422	2157,166
1	0,000	121,472	2157,568
1	0,000	121,472	2158,072
1	0,000	121,521	2158,676
1	0,000	121,572	2159,079
1	0,000	121,572	2159,583
1	0,000	121,622	2160,086
1	0,000	121,671	2160,590
1	0,000	121,671	2161,093
1	0,000	121,721	2161,597
1	0,000	121,772	2162,100
1	0,000	121,772	2162,604
1	0,000	121,822	2163,208
1	0,000	121,871	2163,611
1	0,000	121,871	2164,215
1	0,000	121,922	2164,618
1	0,000	121,972	2165,121
1	0,000	121,972	2165,726
1	0,000	122,023	2166,129
1	0,000	122,073	2166,632
1	0,000	122,073	2167,136
1	0,000	122,123	2167,639
1	0,000	122,173	2167,538
1	0,000	122,173	2168,344
1	0,000	122,223	2168,948
1	0,000	122,274	2169,452
1	0,000	122,274	2169,855
1	0,000	122,324	2170,157
1	0,000	122,374	2170,862
1	0,000	122,374	2171,265
1	0,000	122,424	2171,869
1	0,000	122,474	2172,372
1	0,000	122,474	2172,775
1	0,000	122,524	2173,279
1	0,000	122,574	2173,782
1	0,000	122,574	2174,185
1	0,000	122,624	2174,890
1	0,000	122,674	2175,293
1	0,000	122,674	2175,696
1	0,000	122,725	2176,300
1	0,000	122,775	2176,904
1	0,000	122,775	2177,307
1	0,000	122,825	2177,811
1	0,000	122,875	2178,314
1	0,000	122,875	2178,818
1	0,000	122,925	2179,321
1	0,000	122,975	2179,724
1	0,000	122,975	2180,429
1	0,000	123,025	2180,731
1	0,000	123,075	2181,335
1	0,000	123,075	2181,738
1	0,000	123,125	2182,242
1	0,000	123,175	2182,846
1	0,000	123,175	2183,249
1	0,000	123,225	2183,752
1	0,000	123,275	2184,357
1	0,000	123,275	2184,760
1	0,000	123,325	2185,364
1	0,000	123,376	2185,767
1	0,000	123,376	2186,270
1	0,000	123,426	2186,874
1	0,000	123,476	2187,378
1	0,000	123,476	2187,881
1	0,000	123,526	2188,284
1	0,000	123,526	2188,889
1	0,000	123,577	2189,392
1	0,000	123,627	2189,896
1	0,000	123,627	2190,298
1	0,000	123,677	2190,903
1	0,000	123,726	2191,406
1	0,000	123,726	2191,910
1	0,000	123,777	2192,413
1	0,000	123,827	2193,018
1	0,000	123,827	2193,723
1	0,000	123,877	2194,025
1	0,000	123,927	2194,427
1	0,000	123,927	2194,830
1	0,000	123,977	2195,435
1	0,000	124,028	2195,837
1	0,000	124,028	2196,341
1	0,000	124,079	2196,945
1	0,000	124,129	2197,449
1	0,000	124,129	2197,952
1	0,000	124,179	2198,456
1	0,000	124,230	2198,959
1	0,000	124,230	2199,564
1	0,000	124,279	2200,067
1	0,000	124,330	2200,571
1	0,000	124,330	2201,074
1	0,000	124,380	2201,578
1	0,000	124,430	2202,182
1	0,000	124,430	2202,686
1	0,000	124,480	2203,189
1	0,000	124,530	2203,693
1	0,000	124,530	2204,196
1	0,000	124,580	2204,700
1	0,000	124,631	2205,203
1	0,000	124,631	2205,807
1	0,000	124,681	2206,311
1	0,000	124,731	2206,815
1	0,000	124,731	2207,318
1	0,000	124,780	2207,822
1	0,000	124,831	2208,426
1	0,000	124,831	2208,929
1	0,000	124,881	2209,433
1	0,000	124,930	2209,937
1	0,000	124,930	2210,541
1	0,000	124,981	2211,044
1	0,000	125,031	2211,649
1	0,000	125,031	2212,051
1	0,000	125,081	2212,555
1	0,000	125,131	2213,159
1	0,000	125,131	2213,663
1	0,000	125,181	2214,166
1	0,000	125,231	2214,670
1	0,000	125,231	2215,274
1	0,000	125,282	2215,778
1	0,000	125,332	2216,382
1	0,000	125,332	2216,986
1	0,000	125,382	2217,389
1	0,000	125,432	2217,993
1	0,000	125,432	2218,597
1	0,000	125,483	2219,101
1	0,000	125,532	2219,705
1	0,000	125,532	2220,209
1	0,000	125,582	2220,712
1	0,000	125,632	2221,317
1	0,000	125,632	2221,820
1	0,000	125,682	2222,324
1	0,000	125,733	2222,827
1	0,000	125,733	2223,532
1	0,000	125,783	2224,036
1	0,000	125,833	2224,539
1	0,000	125,833	2225,043
1	0,000	125,883	2225,647
1	0,000	125,932	2226,151
1	0,000	125,932	2226,755
1	0,000	125,983	2227,258
1	0,000	126,033	2227,863
1	0,000	126,033	2228,366
1	0,000	126,082	2228,970
1	0,000	126,133	2229,474
1	0,000	126,133	2229,977
1	0,000	126,183	2230,582
1	0,000	126,233	2231,085
1	0,000	126,233	2231,689
1	0,000	126,283	2232,193
1	0,000	126,333	2232,697
1	0,000	126,333	2233,301
1	0,000	126,383	2233,804
1	0,000	126,434	2234,308
1	0,000	126,434	2234,912
1	0,000	126,484	2235,416
1	0,000	126,533	2236,020
1	0,000	126,533	2236,523
1	0,000	126,584	2237,027
1	0,000	126,634	2237,531
1	0,000	126,634	2238,135
1	0,000	126,684	2238,739
1	0,000	126,734	2239,243
1	0,000	126,734	2239,847
1	0,000	126,784	2240,451
1	0,000	126,834	2241,055
1	0,000	126,834	2241,559
1	0,000	126,884	2242,062
1	0,000	126,934	2242,566
1	0,000	126,934	2241,962
1	0,000	126,984	2244,177
1	0,000	127,035	2244,177
1	0,000	127,035	2244,781
1	0,000	127,085	2245,386
1	0,000	127,135	2245,889
1	0,000	127,135	2246,494
1	0,000	127,186	2246,997
1	0,000	127,236	2247,501
1	0,000	127,236	2248,105
1	0,000	127,286	2248,608
1	0,000	127,336	2249,112
1	0,000	127,336	2249,716
1	0,000	127,386	2250,220
1	0,000	127,436	2250,824
1	0,000	127,436	2251,428
1	0,000	127,487	2251,932
1	0,000	127,537	2252,536
1	0,000	127,537	2253,040
1	0,000	127,587	2253,543
1	0,000	127,637	2254,047
1	0,000	127,637	2254,752
1	0,000	127,688	2255,255
1	0,000	127,738	2255,759
1	0,000	127,738	2256,262
1	0,000	127,788	2256,866
1	0,000	127,838	2257,370
1	0,000	127,838	2257,974
1	0,000	127,888	2258,578
1	0,000	127,938	2259,082
1	0,000	127,938	2259,586
1	0,000	127,988	2260,190
1	0,000	128,038	2260,794
1	0,000	128,038	2261,298
1	0,000	128,088	2261,801
1	0,000	128,138	2262,405
1	0,000	128,138	2263,010
1	0,000	128,189	2263,614
1	0,000	128,239	2264,117
1	0,000	128,239	2264,621
1	0,000	128,289	2265,225
1	0,000	128,339	2265,829
1	0,000	128,339	2266,333
1	0,000	128,389	2266,937
1	0,000	128,439	2267,340
1	0,000	128,439	2268,045
1	0,000	128,490	2268,549
1	0,000	128,539	2269,153
1	0,000	128,539	2269,757
1	0,000	128,590	2270,261
1	0,000	128,640	2270,865
1	0,000	128,640	2271,469
1	0,000	128,690	2272,073
1	0,000	128,740	2272,577
1	0,000	128,740	2273,181
1	0,000	128,790	2273,785
1	0,000	128,790	2274,289
1	0,000	128,841	2274,893
1	0,000	128,891	2275,497
1	0,000	128,891	2276,102
1	0,000	128,942	2276,605
1	0,000	128,991	2277,209
1	0,000	128,991	2277,814
1	0,000	129,042	2278,317
1	0,000	129,092	2278,922
1	0,000	129,092	2279,526
1	0,000	129,142	2280,130
1	0,000	129,192	2280,835
1	0,000	129,192	2281,439
1	0,000	129,243	2281,943
1	0,000	129,293	2282,648
1	0,000	129,293	2283,151
1	0,000	129,343	2283,655
1	0,000	129,393	2284,158
1	0,000	129,393	2284,763
1	0,000	129,443	2285,367
1	0,000	129,493	2285,870
1	0,000	129,493	2286,475
1	0,000	129,543	2287,079
1	0,000	129,594	2287,784
1	0,000	129,594	2288,388
1	0,000	129,644	2288,892
1	0,000	129,694	2289,496
1	0,000	129,694	2290,100
1	0,000	129,744	2290,704
1	0,000	129,794	2291,309
1	0,000	129,794	2291,913
1	0,000	129,844	2292,416
1	0,000	129,894	2293,021
1	0,000	129,894	2293,625
1	0,000	129,944	2294,128
1	0,000	129,994	2294,733
1	0,000	129,994	2295,337
1	0,000	130,045	2295,840
1	0,000	130,095	2296,445
1	0,000	130,095	2297,049
1	0,000	130,144	2297,653
1	0,000	130,195	2298,257
1	0,000	130,195	2298,862
1	0,000	130,244	2299,466
1	0,000	130,295	2300,070
1	0,000	130,295	2300,574
1	0,000	130,345	2301,178
1	0,000	130,394	2301,782
1	0,000	130,394	2302,386
1	0,000	130,445	2302,890
1	0,000	130,495	2303,494
1	0,000	130,495	2304,099
1	0,000	130,545	2304,703
1	0,000	130,596	2305,307
1	0,000	130,596	2305,811
1	0,000	130,646	2306,516
1	0,000	130,696	2307,019
1	0,000	130,696	2307,724
1	0,000	130,746	2308,328
1	0,000	130,796	2308,932
1	0,000	130,796	2309,537
1	0,000	130,847	2310,040
1	0,000	130,896	2310,745
1	0,000	130,896	2311,349
1	0,000	130,947	2311,954
1	0,000	130,997	2312,457
1	0,000	130,997	2313,162
1	0,000	131,047	2313,766
1	0,000	131,096	2314,371
1	0,000	131,096	2315,076
1	0,000	131,147	2315,579
1	0,000	131,196	2316,183
1	0,000	131,196	2316,788
1	0,000	131,247	2317,392
1	0,000	131,297	2317,996
1	0,000	131,297	2318,701
1	0,000	131,348	2319,104
1	0,000	131,399	2319,809
1	0,000	131,399	2320,413
1	0,000	131,449	2321,017
1	0,000	131,499	2321,622
1	0,000	131,499	2322,226
1	0,000	131,548	2322,729
1	0,000	131,598	2323,434
1	0,000	131,598	2324,039
1	0,000	131,648	2324,643
1	0,000	131,699	2325,348
1	0,000	131,699	2325,952
1	0,000	131,749	2326,556
1	0,000	131,799	2327,161
1	0,000	131,799	2327,765
1	0,000	131,850	2328,369
1	0,000	131,900	2328,973
1	0,000	131,900	2329,376
1	0,000	131,950	2330,182
1	0,000	132,001	2330,786
1	0,000	132,001	2331,290
1	0,000	132,051	2331,894
1	0,000	132,101	2332,599
1	0,000	132,101	2333,102
1	0,000	132,151	2333,807
1	0,000	132,201	2334,613
1	0,000	132,201	2335,016
1	0,000	132,251	2335,721
1	0,000	132,301	2336,426
1	0,000	132,301	2336,929
1	0,000	132,351	2337,433
1	0,000	132,402	2338,037
1	0,000	132,402	2338,641
1	0,000	132,452	2339,346
1	0,000	132,502	2339,951
1	0,000	132,502	2340,454
1	0,000	132,553	2341,159
1	0,000	132,602	2341,763
1	0,000	132,602	2342,368
1	0,000	132,652	2342,972
1	0,000	132,703	2343,677
1	0,000	132,703	2344,180
1	0,000	132,752	2344,785
1	0,000	132,803	2345,490
1	0,000	132,803	2345,993
1	0,000	132,853	2346,698
1	0,000	132,903	2347,302
1	0,000	132,903	2347,906
1	0,000	132,953	2348,611
1	0,000	133,003	2349,216
1	0,000	133,003	2349,820
1	0,000	133,053	2350,424
1	0,000	133,103	2351,028
1	0,000	133,103	2351,733
1	0,000	133,153	2352,237
1	0,000	133,203	2352,942
1	0,000	133,203	2353,546
1	0,000	133,253	2354,150
1	0,000	133,304	2354,755
1	0,000	133,304	2355,359
1	0,000	133,354	2355,963
1	0,000	133,403	2356,668
1	0,000	133,403	2357,373
1	0,000	133,454	2358,078
1	0,000	133,504	2358,582
1	0,000	133,504	2359,186
1	0,000	133,554	2359,891
1	0,000	133,604	2360,696
1	0,000	133,604	2360,898
1	0,000	133,654	2361,804
1	0,000	133,704	2362,308
1	0,000	133,704	2362,811
1	0,000	133,754	2363,516
1	0,000	133,804	2364,120
1	0,000	133,804	2364,725
1	0,000	133,854	2365,530
1	0,000	133,905	2366,034
1	0,000	133,905	2366,739
1	0,000	133,955	2367,343
1	0,000	133,955	2368,149
1	0,000	134,005	2368,552
1	0,000	134,056	2369,156
1	0,000	134,056	2369,760
1	0,000	134,105	2370,465
1	0,000	134,156	2370,969
1	0,000	134,156	2371,674
1	0,000	134,206	2372,379
1	0,000	134,256	2372,983
1	0,000	134,256	2373,587
1	0,000	134,306	2374,292
1	0,000	134,357	2374,896
1	0,000	134,357	2375,500
1	0,000	134,407	2376,105
1	0,000	134,457	2376,810
1	0,000	134,457	2377,515
1	0,000	134,506	2378,119
1	0,000	134,557	2378,723
1	0,000	134,557	2379,327
1	0,000	134,607	2380,133
1	0,000	134,656	2380,737
1	0,000	134,656	2381,342
1	0,000	134,706	2382,047
1	0,000	134,757	2382,550
1	0,000	134,757	2383,356
1	0,000	134,807	2383,960
1	0,000	134,857	2384,967
1	0,000	134,857	2385,168
1	0,000	134,907	2385,873
1	0,000	134,957	2386,578
1	0,000	134,957	2387,384
1	0,000	135,007	2388,089
1	0,000	135,057	2388,895
1	0,000	135,057	2389,197
1	0,000	135,106	2389,801
1	0,000	135,157	2390,405
1	0,000	135,157	2391,010
1	0,000	135,207	2391,714
1	0,000	135,257	2392,319
1	0,000	135,257	2393,024
1	0,000	135,308	2393,729
1	0,000	135,358	2394,434
1	0,000	135,358	2395,038
1	0,000	135,407	2395,642
1	0,000	135,458	2396,448
1	0,000	135,458	2396,951
1	0,000	135,508	2397,556
1	0,000	135,558	2398,260
1	0,000	135,558	2398,865
1	0,000	135,608	2399,469
1	0,000	135,658	2400,073
1	0,000	135,658	2400,778
1	0,000	135,708	2401,382
1	0,000	135,758	2401,987
1	0,000	135,758	2402,692
1	0,000	135,808	2403,397
1	0,000	135,858	2404,102
1	0,000	135,858	2404,706
1	0,000	135,908	2405,411
1	0,000	135,958	2406,116
1	0,000	135,958	2406,720
1	0,000	136,008	2407,324
1	0,000	136,059	2408,029
1	0,000	136,059	2408,633
1	0,000	136,109	2409,338
1	0,000	136,159	2409,943
1	0,000	136,159	2410,748
1	0,000	136,208	2411,353
1	0,000	136,259	2411,755
1	0,000	136,259	2412,662
1	0,000	136,309	2413,367
1	0,000	136,360	2413,971
1	0,000	136,360	2414,676
1	0,000	136,410	2415,280
1	0,000	136,460	2415,985
1	0,000	136,460	2416,589
1	0,000	136,510	2417,194
1	0,000	136,561	2417,899
1	0,000	136,561	2418,604
1	0,000	136,611	2419,208
1	0,000	136,661	2419,812
1	0,000	136,661	2420,618
1	0,000	136,711	2421,222
1	0,000	136,761	2421,927
1	0,000	136,761	2422,430
1	0,000	136,811	2423,135
1	0,000	136,861	2423,740
1	0,000	136,861	2424,344
1	0,000	136,912	2425,049
1	0,000	136,962	2425,754
1	0,000	136,962	2426,358
1	0,000	137,012	2426,962
1	0,000	137,062	2427,667
1	0,000	137,062	2428,473
1	0,000	137,112	2429,077
1	0,000	137,162	2429,681
1	0,000	137,162	2430,386
1	0,000	137,212	2430,890
1	0,000	137,262	2431,897
1	0,000	137,262	2432,300
1	0,000	137,312	2432,904
1	0,000	137,363	2433,609
1	0,000	137,363	2434,213
1	0,000	137,413	2434,717
1	0,000	137,463	2435,724
1	0,000	137,463	2436,127
1	0,000	137,514	2436,832
1	0,000	137,564	2437,436
1	0,000	137,564	2438,141
1	0,000	137,614	2438,846
1	0,000	137,663	2439,651
1	0,000	137,663	2440,256
1	0,000	137,714	2440,659
1	0,000	137,764	2441,766
1	0,000	137,764	2442,270
1	0,000	137,815	2442,975
1	0,000	137,865	2443,579
1	0,000	137,865	2444,284
1	0,000	137,915	2444,989
1	0,000	137,965	2445,694
1	0,000	137,965	2446,298
1	0,000	138,015	2447,104
1	0,000	138,065	2447,607
1	0,000	138,065	2448,312
1	0,000	138,116	2449,017
1	0,000	138,166	2449,622
1	0,000	138,166	2450,327
1	0,000	138,216	2451,031
1	0,000	138,267	2451,837
1	0,000	138,267	2452,542
1	0,000	138,317	2453,046
1	0,000	138,367	2453,751
1	0,000	138,367	2454,254
1	0,000	138,417	2455,161
1	0,000	138,467	2455,765
1	0,000	138,467	2456,470
1	0,000	138,517	2457,175
1	0,000	138,567	2457,880
1	0,000	138,567	2458,585
1	0,000	138,617	2459,290
1	0,000	138,667	2459,894
1	0,000	138,667	2460,699
1	0,000	138,717	2461,304
1	0,000	138,768	2462,009
1	0,000	138,768	2462,411
1	0,000	138,818	2463,318
1	0,000	138,868	2463,922
1	0,000	138,868	2464,627
1	0,000	138,918	2465,332
1	0,000	138,968	2466,037
1	0,000	138,968	2466,641
1	0,000	139,018	2467,346
1	0,000	139,068	2468,051
1	0,000	139,068	2468,655
1	0,000	139,118	2469,360
1	0,000	139,118	2469,965
1	0,000	139,169	2470,670
1	0,000	139,219	2471,375
1	0,000	139,219	2472,079
1	0,000	139,269	2472,482
1	0,000	139,320	2473,288
1	0,000	139,320	2473,993
1	0,000	139,370	2474,799
1	0,000	139,420	2475,302
1	0,000	139,420	2476,108
1	0,000	139,470	2476,813
1	0,000	139,520	2477,518
1	0,000	139,520	2478,223
1	0,000	139,570	2478,928
1	0,000	139,621	2479,834
1	0,000	139,621	2480,338
1	0,000	139,671	2480,841
1	0,000	139,721	2481,546
1	0,000	139,721	2482,352
1	0,000	139,770	2482,956
1	0,000	139,820	2483,862
1	0,000	139,820	2484,366
1	0,000	139,871	2484,970
1	0,000	139,916	2485,474
1	0,000	139,916	2485,876
1	0,000	139,952	2485,977
1	0,000	139,978	2486,481
1	0,000	139,978	2486,179
1	0,000	139,994	2486,481
1	0,000	140,000	2486,481
1	0,000	140,000	2486,481
