Col.n° Rot(deg) Lin(mm) CHR(um)
1	0,000	80,079	1893,613
1	0,000	80,123	1893,713
1	0,000	80,123	1893,713
1	0,000	80,173	1893,613
1	0,000	80,223	1893,512
1	0,000	80,223	1893,512
1	0,000	80,274	1893,915
1	0,000	80,324	1893,512
1	0,000	80,324	1893,311
1	0,000	80,374	1893,411
1	0,000	80,424	1893,311
1	0,000	80,424	1893,109
1	0,000	80,475	1893,210
1	0,000	80,525	1893,210
1	0,000	80,525	1893,210
1	0,000	80,575	1893,210
1	0,000	80,625	1893,311
1	0,000	80,625	1893,210
1	0,000	80,675	1893,109
1	0,000	80,725	1893,008
1	0,000	80,725	1893,008
1	0,000	80,775	1892,908
1	0,000	80,826	1892,908
1	0,000	80,826	1892,908
1	0,000	80,876	1892,908
1	0,000	80,926	1893,008
1	0,000	80,926	1892,908
1	0,000	80,976	1892,807
1	0,000	81,027	1893,008
1	0,000	81,027	1893,008
1	0,000	81,077	1892,807
1	0,000	81,127	1892,807
1	0,000	81,127	1892,807
1	0,000	81,177	1892,706
1	0,000	81,227	1892,706
1	0,000	81,227	1892,807
1	0,000	81,277	1892,606
1	0,000	81,326	1892,606
1	0,000	81,326	1892,606
1	0,000	81,377	1892,606
1	0,000	81,427	1892,606
1	0,000	81,427	1892,606
1	0,000	81,476	1892,404
1	0,000	81,526	1892,505
1	0,000	81,526	1892,404
1	0,000	81,577	1892,303
1	0,000	81,626	1892,404
1	0,000	81,626	1892,404
1	0,000	81,677	1892,303
1	0,000	81,727	1892,505
1	0,000	81,727	1892,303
1	0,000	81,778	1892,303
1	0,000	81,828	1892,303
1	0,000	81,828	1892,203
1	0,000	81,879	1892,203
1	0,000	81,929	1892,203
1	0,000	81,929	1892,203
1	0,000	81,979	1892,102
1	0,000	82,029	1892,001
1	0,000	82,029	1892,203
1	0,000	82,080	1892,102
1	0,000	82,129	1892,102
1	0,000	82,129	1892,001
1	0,000	82,180	1892,001
1	0,000	82,230	1892,102
1	0,000	82,230	1892,001
1	0,000	82,280	1892,001
1	0,000	82,330	1892,001
1	0,000	82,330	1891,901
1	0,000	82,380	1892,102
1	0,000	82,430	1892,001
1	0,000	82,430	1891,901
1	0,000	82,481	1892,001
1	0,000	82,531	1892,102
1	0,000	82,531	1891,901
1	0,000	82,581	1892,001
1	0,000	82,631	1892,001
1	0,000	82,631	1892,001
1	0,000	82,682	1891,901
1	0,000	82,732	1891,800
1	0,000	82,732	1891,901
1	0,000	82,781	1891,901
1	0,000	82,832	1891,800
1	0,000	82,832	1891,901
1	0,000	82,882	1891,800
1	0,000	82,932	1891,901
1	0,000	82,932	1891,800
1	0,000	82,982	1891,901
1	0,000	83,033	1891,901
1	0,000	83,033	1891,800
1	0,000	83,083	1891,800
1	0,000	83,133	1891,699
1	0,000	83,133	1891,800
1	0,000	83,182	1891,699
1	0,000	83,233	1891,800
1	0,000	83,233	1891,599
1	0,000	83,283	1891,699
1	0,000	83,333	1891,599
1	0,000	83,333	1891,599
1	0,000	83,383	1891,599
1	0,000	83,433	1891,599
1	0,000	83,433	1891,699
1	0,000	83,483	1891,599
1	0,000	83,533	1891,599
1	0,000	83,533	1891,699
1	0,000	83,583	1891,699
1	0,000	83,633	1891,699
1	0,000	83,633	1891,498
1	0,000	83,683	1891,699
1	0,000	83,734	1891,800
1	0,000	83,734	1891,699
1	0,000	83,784	1891,599
1	0,000	83,834	1891,599
1	0,000	83,834	1891,599
1	0,000	83,884	1891,599
1	0,000	83,934	1891,599
1	0,000	83,934	1891,599
1	0,000	83,984	1891,699
1	0,000	84,034	1891,599
1	0,000	84,034	1891,599
1	0,000	84,084	1891,599
1	0,000	84,134	1891,599
1	0,000	84,134	1891,599
1	0,000	84,184	1891,599
1	0,000	84,235	1891,498
1	0,000	84,235	1891,699
1	0,000	84,284	1891,599
1	0,000	84,335	1891,498
1	0,000	84,335	1891,599
1	0,000	84,385	1891,498
1	0,000	84,435	1891,498
1	0,000	84,435	1891,599
1	0,000	84,485	1891,699
1	0,000	84,535	1891,599
1	0,000	84,535	1891,599
1	0,000	84,585	1891,599
1	0,000	84,636	1891,599
1	0,000	84,636	1891,599
1	0,000	84,686	1891,699
1	0,000	84,736	1891,800
1	0,000	84,736	1891,699
1	0,000	84,787	1891,599
1	0,000	84,787	1891,800
1	0,000	84,837	1891,599
1	0,000	84,887	1891,498
1	0,000	84,887	1891,599
1	0,000	84,937	1891,699
1	0,000	84,987	1891,800
1	0,000	84,987	1891,699
1	0,000	85,037	1891,800
1	0,000	85,087	1891,800
1	0,000	85,087	1891,599
1	0,000	85,138	1891,901
1	0,000	85,188	1891,800
1	0,000	85,188	1891,901
1	0,000	85,238	1891,800
1	0,000	85,287	1891,800
1	0,000	85,287	1891,699
1	0,000	85,337	1891,800
1	0,000	85,388	1891,800
1	0,000	85,388	1891,901
1	0,000	85,438	1892,001
1	0,000	85,489	1892,001
1	0,000	85,489	1891,800
1	0,000	85,539	1891,699
1	0,000	85,589	1891,800
1	0,000	85,589	1891,901
1	0,000	85,639	1891,901
1	0,000	85,690	1891,800
1	0,000	85,690	1892,001
1	0,000	85,739	1891,901
1	0,000	85,790	1892,001
1	0,000	85,790	1892,102
1	0,000	85,839	1892,001
1	0,000	85,890	1892,001
1	0,000	85,890	1892,102
1	0,000	85,940	1892,001
1	0,000	85,989	1892,001
1	0,000	85,989	1892,001
1	0,000	86,040	1892,203
1	0,000	86,089	1892,203
1	0,000	86,089	1892,404
1	0,000	86,140	1892,203
1	0,000	86,190	1892,102
1	0,000	86,190	1892,203
1	0,000	86,240	1892,303
1	0,000	86,290	1892,203
1	0,000	86,290	1892,203
1	0,000	86,340	1892,303
1	0,000	86,391	1892,303
1	0,000	86,391	1892,303
1	0,000	86,441	1892,303
1	0,000	86,490	1892,404
1	0,000	86,490	1892,303
1	0,000	86,540	1892,505
1	0,000	86,591	1892,505
1	0,000	86,591	1892,404
1	0,000	86,641	1892,303
1	0,000	86,692	1892,203
1	0,000	86,692	1892,505
1	0,000	86,742	1892,404
1	0,000	86,792	1892,505
1	0,000	86,792	1892,404
1	0,000	86,842	1892,505
1	0,000	86,892	1892,505
1	0,000	86,892	1892,505
1	0,000	86,942	1892,606
1	0,000	86,992	1892,606
1	0,000	86,992	1892,807
1	0,000	87,042	1892,807
1	0,000	87,092	1892,706
1	0,000	87,092	1892,908
1	0,000	87,143	1892,807
1	0,000	87,193	1892,807
1	0,000	87,193	1892,807
1	0,000	87,243	1892,908
1	0,000	87,293	1892,908
1	0,000	87,293	1892,908
1	0,000	87,343	1893,109
1	0,000	87,394	1893,008
1	0,000	87,394	1892,908
1	0,000	87,444	1892,908
1	0,000	87,494	1892,908
1	0,000	87,494	1892,908
1	0,000	87,545	1893,008
1	0,000	87,595	1893,210
1	0,000	87,595	1893,311
1	0,000	87,645	1893,210
1	0,000	87,695	1893,411
1	0,000	87,695	1893,311
1	0,000	87,745	1893,311
1	0,000	87,795	1893,411
1	0,000	87,795	1893,512
1	0,000	87,845	1893,411
1	0,000	87,895	1893,512
1	0,000	87,895	1893,512
1	0,000	87,945	1893,512
1	0,000	87,995	1893,613
1	0,000	87,995	1893,713
1	0,000	88,046	1893,613
1	0,000	88,097	1893,713
1	0,000	88,097	1893,814
1	0,000	88,147	1893,814
1	0,000	88,196	1893,915
1	0,000	88,196	1894,016
1	0,000	88,247	1894,116
1	0,000	88,296	1894,217
1	0,000	88,296	1894,116
1	0,000	88,347	1894,016
1	0,000	88,397	1894,217
1	0,000	88,397	1894,217
1	0,000	88,447	1894,217
1	0,000	88,497	1894,318
1	0,000	88,497	1894,318
1	0,000	88,547	1894,318
1	0,000	88,597	1894,418
1	0,000	88,597	1894,418
1	0,000	88,647	1894,620
1	0,000	88,697	1894,620
1	0,000	88,697	1894,620
1	0,000	88,747	1894,821
1	0,000	88,798	1895,023
1	0,000	88,798	1895,023
1	0,000	88,848	1894,922
1	0,000	88,898	1894,821
1	0,000	88,898	1894,922
1	0,000	88,948	1894,821
1	0,000	88,998	1895,023
1	0,000	88,998	1894,922
1	0,000	89,048	1895,023
1	0,000	89,098	1895,224
1	0,000	89,098	1895,123
1	0,000	89,149	1895,224
1	0,000	89,199	1895,325
1	0,000	89,199	1895,425
1	0,000	89,249	1895,425
1	0,000	89,299	1895,425
1	0,000	89,299	1895,526
1	0,000	89,349	1895,627
1	0,000	89,399	1895,728
1	0,000	89,399	1895,828
1	0,000	89,449	1895,728
1	0,000	89,500	1896,030
1	0,000	89,500	1895,929
1	0,000	89,550	1895,929
1	0,000	89,600	1895,929
1	0,000	89,600	1895,929
1	0,000	89,651	1896,030
1	0,000	89,700	1896,130
1	0,000	89,700	1896,130
1	0,000	89,750	1896,130
1	0,000	89,800	1896,231
1	0,000	89,800	1896,332
1	0,000	89,851	1896,432
1	0,000	89,851	1896,533
1	0,000	89,901	1896,533
1	0,000	89,951	1896,634
1	0,000	90,001	1896,735
1	0,000	90,001	1896,835
1	0,000	90,051	1896,835
1	0,000	90,101	1896,030
1	0,000	90,101	1896,835
1	0,000	90,151	1897,037
1	0,000	90,200	1897,037
1	0,000	90,200	1896,936
1	0,000	90,251	1896,835
1	0,000	90,301	1897,238
1	0,000	90,301	1897,238
1	0,000	90,352	1897,137
1	0,000	90,352	1897,137
1	0,000	90,401	1897,842
1	0,000	90,451	1897,641
1	0,000	90,451	1897,641
1	0,000	90,502	1897,641
1	0,000	90,551	1897,842
1	0,000	90,551	1897,943
1	0,000	90,602	1897,943
1	0,000	90,652	1897,943
1	0,000	90,652	1898,044
1	0,000	90,702	1898,145
1	0,000	90,752	1898,145
1	0,000	90,752	1898,245
1	0,000	90,803	1898,346
1	0,000	90,853	1898,447
1	0,000	90,853	1898,547
1	0,000	90,903	1898,447
1	0,000	90,953	1898,547
1	0,000	90,953	1898,648
1	0,000	91,003	1898,749
1	0,000	91,053	1898,849
1	0,000	91,053	1898,950
1	0,000	91,103	1898,950
1	0,000	91,153	1898,950
1	0,000	91,153	1899,051
1	0,000	91,203	1899,252
1	0,000	91,254	1899,252
1	0,000	91,254	1899,454
1	0,000	91,304	1899,454
1	0,000	91,353	1899,454
1	0,000	91,353	1899,554
1	0,000	91,403	1899,655
1	0,000	91,454	1899,756
1	0,000	91,454	1899,857
1	0,000	91,504	1899,957
1	0,000	91,555	1899,957
1	0,000	91,555	1899,957
1	0,000	91,604	1900,058
1	0,000	91,655	1900,259
1	0,000	91,655	1900,259
1	0,000	91,705	1900,360
1	0,000	91,754	1900,360
1	0,000	91,754	1900,461
1	0,000	91,805	1900,562
1	0,000	91,855	1900,562
1	0,000	91,855	1900,662
1	0,000	91,905	1900,864
1	0,000	91,955	1900,763
1	0,000	91,955	1900,964
1	0,000	92,004	1901,065
1	0,000	92,055	1901,065
1	0,000	92,055	1901,266
1	0,000	92,105	1901,166
1	0,000	92,155	1901,266
1	0,000	92,155	1901,367
1	0,000	92,206	1901,468
1	0,000	92,256	1901,569
1	0,000	92,256	1901,669
1	0,000	92,306	1901,770
1	0,000	92,356	1901,871
1	0,000	92,356	1901,971
1	0,000	92,406	1902,173
1	0,000	92,457	1902,173
1	0,000	92,457	1902,274
1	0,000	92,507	1902,274
1	0,000	92,558	1902,475
1	0,000	92,558	1902,576
1	0,000	92,608	1902,676
1	0,000	92,658	1902,777
1	0,000	92,658	1902,878
1	0,000	92,708	1903,079
1	0,000	92,758	1903,180
1	0,000	92,758	1903,180
1	0,000	92,808	1903,281
1	0,000	92,858	1903,381
1	0,000	92,858	1903,482
1	0,000	92,908	1903,583
1	0,000	92,958	1903,683
1	0,000	92,958	1903,784
1	0,000	93,009	1903,885
1	0,000	93,059	1903,986
1	0,000	93,059	1904,086
1	0,000	93,109	1904,187
1	0,000	93,159	1904,288
1	0,000	93,159	1904,388
1	0,000	93,209	1904,388
1	0,000	93,259	1904,590
1	0,000	93,259	1904,691
1	0,000	93,309	1904,791
1	0,000	93,359	1904,791
1	0,000	93,359	1904,892
1	0,000	93,410	1904,993
1	0,000	93,460	1905,295
1	0,000	93,460	1905,295
1	0,000	93,510	1905,295
1	0,000	93,560	1905,396
1	0,000	93,560	1905,496
1	0,000	93,611	1905,698
1	0,000	93,660	1905,798
1	0,000	93,660	1905,798
1	0,000	93,711	1905,899
1	0,000	93,760	1906,000
1	0,000	93,760	1906,100
1	0,000	93,810	1906,201
1	0,000	93,861	1906,302
1	0,000	93,861	1906,403
1	0,000	93,910	1906,503
1	0,000	93,961	1906,705
1	0,000	93,961	1906,805
1	0,000	94,011	1906,906
1	0,000	94,061	1907,007
1	0,000	94,061	1907,108
1	0,000	94,111	1907,309
1	0,000	94,161	1907,410
1	0,000	94,161	1907,410
1	0,000	94,212	1907,510
1	0,000	94,262	1907,712
1	0,000	94,262	1907,812
1	0,000	94,312	1907,913
1	0,000	94,362	1908,014
1	0,000	94,362	1908,115
1	0,000	94,412	1908,215
1	0,000	94,462	1908,316
1	0,000	94,462	1908,417
1	0,000	94,512	1908,517
1	0,000	94,562	1908,618
1	0,000	94,562	1908,719
1	0,000	94,612	1908,920
1	0,000	94,662	1909,021
1	0,000	94,662	1909,122
1	0,000	94,712	1909,222
1	0,000	94,762	1909,525
1	0,000	94,762	1909,525
1	0,000	94,813	1909,525
1	0,000	94,862	1909,827
1	0,000	94,862	1909,827
1	0,000	94,913	1910,028
1	0,000	94,962	1910,028
1	0,000	94,962	1910,229
1	0,000	95,013	1910,431
1	0,000	95,063	1910,431
1	0,000	95,063	1910,632
1	0,000	95,113	1910,834
1	0,000	95,162	1910,934
1	0,000	95,162	1911,035
1	0,000	95,213	1911,136
1	0,000	95,262	1911,237
1	0,000	95,262	1911,337
1	0,000	95,313	1911,539
1	0,000	95,362	1911,740
1	0,000	95,362	1911,740
1	0,000	95,412	1911,942
1	0,000	95,463	1912,143
1	0,000	95,463	1912,244
1	0,000	95,512	1912,445
1	0,000	95,562	1912,646
1	0,000	95,562	1912,747
1	0,000	95,613	1912,848
1	0,000	95,664	1912,949
1	0,000	95,664	1913,049
1	0,000	95,714	1913,251
1	0,000	95,714	1913,351
1	0,000	95,764	1913,351
1	0,000	95,815	1913,553
1	0,000	95,815	1913,654
1	0,000	95,865	1913,855
1	0,000	95,915	1914,056
1	0,000	95,915	1914,258
1	0,000	95,965	1914,359
1	0,000	96,015	1914,560
1	0,000	96,015	1914,560
1	0,000	96,065	1914,761
1	0,000	96,115	1914,761
1	0,000	96,115	1914,862
1	0,000	96,165	1915,063
1	0,000	96,216	1915,265
1	0,000	96,216	1915,265
1	0,000	96,265	1915,366
1	0,000	96,316	1915,567
1	0,000	96,316	1915,668
1	0,000	96,366	1915,768
1	0,000	96,416	1915,970
1	0,000	96,416	1916,071
1	0,000	96,466	1916,272
1	0,000	96,516	1916,473
1	0,000	96,516	1916,574
1	0,000	96,567	1916,776
1	0,000	96,617	1916,977
1	0,000	96,617	1917,078
1	0,000	96,667	1917,279
1	0,000	96,717	1917,380
1	0,000	96,717	1917,480
1	0,000	96,768	1917,581
1	0,000	96,818	1917,783
1	0,000	96,818	1917,984
1	0,000	96,868	1918,085
1	0,000	96,919	1918,286
1	0,000	96,919	1918,387
1	0,000	96,969	1918,488
1	0,000	97,020	1918,588
1	0,000	97,020	1918,790
1	0,000	97,070	1918,890
1	0,000	97,120	1919,092
1	0,000	97,120	1919,193
1	0,000	97,170	1919,293
1	0,000	97,220	1919,495
1	0,000	97,220	1919,696
1	0,000	97,270	1919,696
1	0,000	97,320	1919,998
1	0,000	97,320	1920,099
1	0,000	97,370	1920,300
1	0,000	97,420	1920,602
1	0,000	97,420	1920,602
1	0,000	97,470	1920,804
1	0,000	97,521	1920,905
1	0,000	97,521	1921,106
1	0,000	97,571	1921,307
1	0,000	97,622	1921,509
1	0,000	97,622	1921,609
1	0,000	97,672	1921,710
1	0,000	97,722	1921,912
1	0,000	97,722	1922,113
1	0,000	97,772	1922,314
1	0,000	97,823	1922,415
1	0,000	97,823	1922,617
1	0,000	97,873	1922,818
1	0,000	97,922	1923,019
1	0,000	97,922	1923,120
1	0,000	97,972	1923,221
1	0,000	98,022	1923,523
1	0,000	98,022	1923,624
1	0,000	98,072	1923,825
1	0,000	98,122	1923,825
1	0,000	98,122	1924,127
1	0,000	98,173	1924,228
1	0,000	98,223	1924,530
1	0,000	98,223	1924,631
1	0,000	98,273	1924,832
1	0,000	98,324	1924,933
1	0,000	98,324	1925,134
1	0,000	98,374	1925,436
1	0,000	98,424	1925,537
1	0,000	98,424	1925,739
1	0,000	98,474	1925,940
1	0,000	98,524	1926,041
1	0,000	98,524	1926,242
1	0,000	98,575	1926,343
1	0,000	98,625	1926,645
1	0,000	98,625	1926,846
1	0,000	98,675	1926,846
1	0,000	98,725	1927,148
1	0,000	98,725	1927,350
1	0,000	98,774	1927,451
1	0,000	98,824	1927,551
1	0,000	98,824	1927,753
1	0,000	98,875	1927,954
1	0,000	98,925	1928,055
1	0,000	98,925	1928,256
1	0,000	98,975	1928,458
1	0,000	99,025	1928,659
1	0,000	99,025	1928,760
1	0,000	99,075	1928,860
1	0,000	99,124	1929,163
1	0,000	99,124	1929,465
1	0,000	99,175	1929,666
1	0,000	99,225	1929,868
1	0,000	99,225	1929,968
1	0,000	99,275	1930,170
1	0,000	99,324	1930,371
1	0,000	99,324	1930,573
1	0,000	99,375	1930,774
1	0,000	99,425	1930,774
1	0,000	99,425	1931,076
1	0,000	99,475	1931,277
1	0,000	99,525	1931,479
1	0,000	99,525	1931,580
1	0,000	99,575	1931,680
1	0,000	99,626	1931,982
1	0,000	99,626	1932,184
1	0,000	99,676	1932,285
1	0,000	99,726	1932,486
1	0,000	99,726	1932,788
1	0,000	99,776	1932,788
1	0,000	99,827	1932,990
1	0,000	99,827	1933,292
1	0,000	99,877	1933,392
1	0,000	99,927	1933,493
1	0,000	99,927	1933,795
1	0,000	99,977	1933,997
1	0,000	100,027	1934,097
1	0,000	100,027	1934,299
1	0,000	100,077	1934,500
1	0,000	100,127	1934,702
1	0,000	100,127	1935,004
1	0,000	100,177	1935,205
1	0,000	100,227	1935,306
1	0,000	100,227	1935,507
1	0,000	100,277	1935,709
1	0,000	100,327	1935,910
1	0,000	100,327	1936,111
1	0,000	100,377	1936,313
1	0,000	100,428	1936,514
1	0,000	100,428	1936,716
1	0,000	100,478	1936,917
1	0,000	100,528	1937,119
1	0,000	100,528	1937,320
1	0,000	100,578	1937,622
1	0,000	100,628	1937,723
1	0,000	100,628	1937,924
1	0,000	100,678	1938,226
1	0,000	100,728	1938,428
1	0,000	100,728	1938,629
1	0,000	100,779	1938,831
1	0,000	100,828	1939,032
1	0,000	100,828	1939,233
1	0,000	100,879	1939,435
1	0,000	100,879	1939,636
1	0,000	100,929	1939,838
1	0,000	100,979	1940,039
1	0,000	101,029	1940,341
1	0,000	101,029	1940,442
1	0,000	101,079	1940,744
1	0,000	101,129	1940,945
1	0,000	101,129	1941,147
1	0,000	101,179	1941,348
1	0,000	101,229	1941,550
1	0,000	101,229	1941,852
1	0,000	101,279	1942,053
1	0,000	101,279	1942,255
1	0,000	101,329	1942,456
1	0,000	101,379	1942,657
1	0,000	101,379	1942,859
1	0,000	101,429	1943,060
1	0,000	101,480	1943,262
1	0,000	101,480	1943,463
1	0,000	101,530	1943,665
1	0,000	101,579	1943,967
1	0,000	101,579	1944,168
1	0,000	101,630	1944,370
1	0,000	101,680	1944,672
1	0,000	101,680	1944,772
1	0,000	101,730	1944,974
1	0,000	101,780	1945,276
1	0,000	101,780	1945,377
1	0,000	101,830	1945,679
1	0,000	101,881	1945,880
1	0,000	101,881	1946,082
1	0,000	101,931	1946,384
1	0,000	101,981	1946,585
1	0,000	101,981	1946,786
1	0,000	102,031	1947,089
1	0,000	102,082	1947,290
1	0,000	102,082	1947,391
1	0,000	102,132	1947,693
1	0,000	102,182	1947,794
1	0,000	102,182	1947,995
1	0,000	102,232	1948,297
1	0,000	102,282	1948,599
1	0,000	102,282	1948,801
1	0,000	102,332	1949,002
1	0,000	102,381	1949,304
1	0,000	102,381	1949,506
1	0,000	102,431	1949,707
1	0,000	102,482	1949,808
1	0,000	102,482	1950,110
1	0,000	102,532	1950,412
1	0,000	102,582	1950,513
1	0,000	102,582	1950,815
1	0,000	102,633	1951,016
1	0,000	102,683	1951,218
1	0,000	102,683	1951,419
1	0,000	102,734	1951,620
1	0,000	102,784	1951,923
1	0,000	102,784	1952,124
1	0,000	102,833	1952,325
1	0,000	102,883	1952,527
1	0,000	102,883	1952,728
1	0,000	102,934	1952,930
1	0,000	102,984	1953,232
1	0,000	102,984	1953,333
1	0,000	103,034	1953,635
1	0,000	103,084	1953,836
1	0,000	103,084	1954,037
1	0,000	103,134	1954,138
1	0,000	103,184	1954,541
1	0,000	103,184	1954,742
1	0,000	103,235	1955,045
1	0,000	103,285	1955,246
1	0,000	103,285	1955,447
1	0,000	103,335	1955,649
1	0,000	103,386	1955,850
1	0,000	103,386	1956,152
1	0,000	103,436	1956,454
1	0,000	103,486	1956,757
1	0,000	103,486	1956,958
1	0,000	103,536	1957,159
1	0,000	103,587	1957,361
1	0,000	103,587	1957,663
1	0,000	103,637	1957,864
1	0,000	103,687	1958,167
1	0,000	103,687	1958,368
1	0,000	103,737	1958,670
1	0,000	103,787	1958,871
1	0,000	103,787	1959,073
1	0,000	103,837	1959,274
1	0,000	103,887	1959,476
1	0,000	103,887	1959,778
1	0,000	103,937	1960,080
1	0,000	103,987	1960,281
1	0,000	103,987	1960,483
1	0,000	104,037	1960,785
1	0,000	104,087	1960,986
1	0,000	104,087	1961,389
1	0,000	104,138	1961,591
1	0,000	104,188	1961,792
1	0,000	104,188	1961,993
1	0,000	104,238	1962,396
1	0,000	104,288	1962,497
1	0,000	104,288	1962,799
1	0,000	104,338	1963,202
1	0,000	104,389	1963,303
1	0,000	104,389	1963,705
1	0,000	104,439	1963,806
1	0,000	104,489	1964,008
1	0,000	104,489	1964,209
1	0,000	104,540	1964,612
1	0,000	104,590	1964,713
1	0,000	104,590	1965,015
1	0,000	104,640	1965,216
1	0,000	104,690	1965,619
1	0,000	104,690	1965,820
1	0,000	104,741	1966,223
1	0,000	104,791	1966,425
1	0,000	104,791	1966,727
1	0,000	104,842	1966,928
1	0,000	104,892	1967,230
1	0,000	104,892	1967,532
1	0,000	104,941	1967,734
1	0,000	104,991	1968,036
1	0,000	104,991	1968,237
1	0,000	105,042	1968,439
1	0,000	105,091	1968,741
1	0,000	105,091	1969,043
1	0,000	105,142	1969,345
1	0,000	105,192	1969,647
1	0,000	105,192	1969,949
1	0,000	105,241	1970,151
1	0,000	105,291	1970,453
1	0,000	105,291	1970,755
1	0,000	105,342	1970,956
1	0,000	105,392	1971,259
1	0,000	105,392	1971,460
1	0,000	105,442	1971,762
1	0,000	105,493	1972,064
1	0,000	105,493	1972,266
1	0,000	105,543	1972,668
1	0,000	105,593	1972,870
1	0,000	105,593	1973,172
1	0,000	105,643	1973,474
1	0,000	105,643	1973,676
1	0,000	105,693	1973,978
1	0,000	105,743	1974,179
1	0,000	105,794	1974,380
1	0,000	105,794	1974,683
1	0,000	105,844	1975,388
1	0,000	105,893	1975,589
1	0,000	105,893	1975,589
1	0,000	105,944	1975,891
1	0,000	105,944	1976,193
1	0,000	105,994	1976,495
1	0,000	106,044	1976,697
1	0,000	106,044	1976,898
1	0,000	106,094	1977,100
1	0,000	106,145	1977,402
1	0,000	106,145	1977,805
1	0,000	106,195	1978,107
1	0,000	106,245	1978,308
1	0,000	106,245	1978,610
1	0,000	106,294	1978,912
1	0,000	106,345	1979,214
1	0,000	106,345	1979,517
1	0,000	106,395	1979,819
1	0,000	106,445	1980,121
1	0,000	106,445	1980,423
1	0,000	106,496	1980,725
1	0,000	106,546	1980,927
1	0,000	106,546	1981,329
1	0,000	106,595	1981,631
1	0,000	106,647	1981,934
1	0,000	106,647	1982,236
1	0,000	106,697	1982,538
1	0,000	106,746	1982,840
1	0,000	106,746	1983,142
1	0,000	106,796	1983,444
1	0,000	106,847	1983,646
1	0,000	106,847	1984,048
1	0,000	106,897	1984,351
1	0,000	106,947	1984,653
1	0,000	106,947	1984,854
1	0,000	106,997	1985,257
1	0,000	107,047	1985,559
1	0,000	107,047	1985,861
1	0,000	107,098	1986,163
1	0,000	107,148	1986,465
1	0,000	107,148	1987,170
1	0,000	107,198	1987,170
1	0,000	107,249	1987,976
1	0,000	107,249	1987,875
1	0,000	107,298	1988,077
1	0,000	107,349	1988,379
1	0,000	107,349	1988,782
1	0,000	107,400	1988,882
1	0,000	107,450	1989,285
1	0,000	107,450	1989,386
1	0,000	107,501	1989,688
1	0,000	107,551	1989,990
1	0,000	107,551	1990,393
1	0,000	107,601	1990,594
1	0,000	107,651	1990,897
1	0,000	107,651	1991,199
1	0,000	107,701	1991,501
1	0,000	107,751	1991,803
1	0,000	107,751	1992,105
1	0,000	107,801	1992,407
1	0,000	107,852	1992,810
1	0,000	107,852	1993,112
1	0,000	107,902	1993,314
1	0,000	107,952	1993,716
1	0,000	107,952	1994,019
1	0,000	108,002	1994,321
1	0,000	108,053	1994,724
1	0,000	108,053	1995,026
1	0,000	108,103	1995,328
1	0,000	108,153	1995,731
1	0,000	108,153	1996,033
1	0,000	108,203	1996,234
1	0,000	108,254	1996,536
1	0,000	108,254	1996,939
1	0,000	108,304	1997,241
1	0,000	108,354	1997,543
1	0,000	108,354	1997,946
1	0,000	108,405	1998,148
1	0,000	108,456	1998,550
1	0,000	108,456	1998,853
1	0,000	108,505	1999,356
1	0,000	108,556	1999,658
1	0,000	108,556	2000,061
1	0,000	108,606	2000,162
1	0,000	108,655	2000,464
1	0,000	108,655	2000,867
1	0,000	108,706	2001,169
1	0,000	108,755	2001,370
1	0,000	108,755	2001,773
1	0,000	108,806	2002,075
1	0,000	108,856	2002,377
1	0,000	108,856	2002,679
1	0,000	108,906	2003,183
1	0,000	108,955	2003,687
1	0,000	108,955	2003,687
1	0,000	109,006	2003,989
1	0,000	109,056	2004,291
1	0,000	109,056	2004,593
1	0,000	109,107	2004,996
1	0,000	109,157	2005,298
1	0,000	109,157	2005,600
1	0,000	109,207	2006,003
1	0,000	109,257	2006,406
1	0,000	109,257	2006,708
1	0,000	109,308	2007,111
1	0,000	109,357	2007,413
1	0,000	109,357	2007,715
1	0,000	109,407	2008,118
1	0,000	109,457	2008,420
1	0,000	109,457	2008,823
1	0,000	109,508	2009,024
1	0,000	109,558	2009,427
1	0,000	109,558	2009,830
1	0,000	109,608	2010,132
1	0,000	109,657	2010,535
1	0,000	109,657	2010,837
1	0,000	109,707	2011,139
1	0,000	109,707	2011,542
1	0,000	109,758	2011,743
1	0,000	109,807	2012,146
1	0,000	109,807	2012,448
1	0,000	109,858	2012,851
1	0,000	109,908	2013,153
1	0,000	109,908	2013,556
1	0,000	109,958	2013,858
1	0,000	110,008	2014,160
1	0,000	110,008	2014,462
1	0,000	110,058	2014,865
1	0,000	110,109	2015,268
1	0,000	110,109	2015,570
1	0,000	110,159	2015,973
1	0,000	110,209	2016,275
1	0,000	110,209	2016,577
1	0,000	110,258	2016,980
1	0,000	110,309	2017,181
1	0,000	110,309	2017,584
1	0,000	110,359	2017,987
1	0,000	110,409	2018,390
1	0,000	110,409	2018,692
1	0,000	110,459	2019,095
1	0,000	110,508	2019,397
1	0,000	110,508	2019,699
1	0,000	110,559	2020,102
1	0,000	110,609	2020,505
1	0,000	110,609	2020,807
1	0,000	110,660	2021,109
1	0,000	110,711	2021,512
1	0,000	110,711	2021,814
1	0,000	110,761	2022,116
1	0,000	110,811	2022,418
1	0,000	110,811	2022,821
1	0,000	110,861	2023,022
1	0,000	110,912	2023,425
1	0,000	110,912	2023,727
1	0,000	110,962	2024,030
1	0,000	111,012	2024,432
1	0,000	111,012	2024,835
1	0,000	111,062	2025,137
1	0,000	111,112	2025,439
1	0,000	111,112	2025,842
1	0,000	111,162	2026,144
1	0,000	111,213	2026,547
1	0,000	111,213	2026,849
1	0,000	111,262	2027,252
1	0,000	111,313	2027,554
1	0,000	111,313	2027,957
1	0,000	111,363	2028,259
1	0,000	111,413	2028,662
1	0,000	111,413	2028,964
1	0,000	111,463	2029,367
1	0,000	111,513	2029,770
1	0,000	111,513	2030,173
1	0,000	111,563	2030,475
1	0,000	111,613	2030,978
1	0,000	111,613	2031,281
1	0,000	111,663	2031,683
1	0,000	111,714	2032,086
1	0,000	111,714	2032,489
1	0,000	111,765	2032,892
1	0,000	111,815	2033,194
1	0,000	111,815	2033,698
1	0,000	111,865	2034,000
1	0,000	111,915	2034,302
1	0,000	111,915	2034,705
1	0,000	111,965	2035,007
1	0,000	112,015	2035,410
1	0,000	112,015	2035,611
1	0,000	112,065	2035,913
1	0,000	112,115	2036,215
1	0,000	112,115	2036,618
1	0,000	112,165	2036,920
1	0,000	112,215	2037,222
1	0,000	112,215	2037,726
1	0,000	112,265	2038,028
1	0,000	112,316	2038,330
1	0,000	112,316	2038,733
1	0,000	112,366	2039,236
1	0,000	112,417	2039,438
1	0,000	112,417	2039,841
1	0,000	112,467	2040,344
1	0,000	112,516	2040,646
1	0,000	112,516	2040,948
1	0,000	112,567	2041,452
1	0,000	112,616	2041,754
1	0,000	112,616	2042,157
1	0,000	112,667	2042,560
1	0,000	112,717	2042,862
1	0,000	112,717	2043,365
1	0,000	112,767	2043,668
1	0,000	112,817	2044,070
1	0,000	112,817	2044,373
1	0,000	112,867	2044,977
1	0,000	112,917	2045,380
1	0,000	112,917	2045,782
1	0,000	112,967	2046,286
1	0,000	113,017	2046,588
1	0,000	113,017	2046,991
1	0,000	113,067	2047,293
1	0,000	113,117	2047,595
1	0,000	113,117	2047,897
1	0,000	113,167	2048,300
1	0,000	113,217	2048,703
1	0,000	113,217	2048,904
1	0,000	113,267	2049,307
1	0,000	113,317	2049,710
1	0,000	113,317	2050,012
1	0,000	113,368	2050,415
1	0,000	113,418	2050,818
1	0,000	113,418	2051,221
1	0,000	113,468	2051,624
1	0,000	113,518	2051,926
1	0,000	113,518	2052,328
1	0,000	113,569	2052,731
1	0,000	113,619	2053,235
1	0,000	113,619	2053,537
1	0,000	113,669	2053,940
1	0,000	113,719	2054,343
1	0,000	113,719	2054,745
1	0,000	113,769	2055,148
1	0,000	113,820	2055,551
1	0,000	113,820	2055,954
1	0,000	113,869	2056,357
1	0,000	113,920	2056,760
1	0,000	113,920	2057,062
1	0,000	113,970	2057,465
1	0,000	114,020	2057,867
1	0,000	114,020	2058,270
1	0,000	114,070	2058,673
1	0,000	114,121	2059,076
1	0,000	114,121	2059,579
1	0,000	114,170	2059,982
1	0,000	114,221	2060,284
1	0,000	114,221	2060,687
1	0,000	114,271	2061,090
1	0,000	114,321	2061,493
1	0,000	114,321	2061,896
1	0,000	114,371	2062,299
1	0,000	114,422	2062,701
1	0,000	114,422	2063,104
1	0,000	114,472	2063,507
1	0,000	114,522	2063,910
1	0,000	114,522	2064,313
1	0,000	114,572	2064,716
1	0,000	114,623	2065,219
1	0,000	114,623	2065,622
1	0,000	114,673	2066,025
1	0,000	114,673	2066,528
1	0,000	114,723	2066,931
1	0,000	114,773	2067,334
1	0,000	114,773	2067,737
1	0,000	114,824	2068,140
1	0,000	114,874	2068,643
1	0,000	114,874	2069,046
1	0,000	114,924	2069,550
1	0,000	114,974	2069,852
1	0,000	114,974	2070,154
1	0,000	115,024	2070,657
1	0,000	115,074	2071,060
1	0,000	115,074	2071,463
1	0,000	115,124	2071,765
1	0,000	115,174	2072,269
1	0,000	115,174	2072,672
1	0,000	115,224	2073,175
1	0,000	115,274	2073,578
1	0,000	115,274	2073,880
1	0,000	115,324	2074,283
1	0,000	115,374	2074,786
1	0,000	115,374	2075,089
1	0,000	115,424	2075,592
1	0,000	115,474	2075,894
1	0,000	115,474	2076,398
1	0,000	115,525	2076,801
1	0,000	115,575	2077,304
1	0,000	115,575	2077,707
1	0,000	115,625	2078,110
1	0,000	115,675	2078,613
1	0,000	115,675	2079,016
1	0,000	115,725	2079,419
1	0,000	115,775	2079,822
1	0,000	115,775	2080,225
1	0,000	115,825	2080,627
1	0,000	115,875	2081,131
1	0,000	115,875	2081,534
1	0,000	115,925	2081,937
1	0,000	115,975	2082,339
1	0,000	115,975	2082,742
1	0,000	116,025	2083,145
1	0,000	116,076	2083,548
1	0,000	116,076	2083,951
1	0,000	116,125	2084,354
1	0,000	116,176	2084,756
1	0,000	116,176	2085,159
1	0,000	116,226	2085,562
1	0,000	116,276	2086,066
1	0,000	116,276	2086,469
1	0,000	116,326	2086,771
1	0,000	116,376	2087,173
1	0,000	116,376	2087,778
1	0,000	116,426	2088,181
1	0,000	116,477	2088,684
1	0,000	116,477	2088,986
1	0,000	116,527	2089,490
1	0,000	116,577	2089,893
1	0,000	116,577	2090,396
1	0,000	116,627	2090,799
1	0,000	116,677	2091,202
1	0,000	116,677	2091,605
1	0,000	116,727	2092,007
1	0,000	116,777	2092,511
1	0,000	116,777	2092,914
1	0,000	116,828	2093,417
1	0,000	116,877	2093,820
1	0,000	116,877	2094,223
1	0,000	116,927	2094,626
1	0,000	116,978	2095,029
1	0,000	116,978	2095,432
1	0,000	117,027	2095,834
1	0,000	117,078	2096,439
1	0,000	117,078	2096,841
1	0,000	117,128	2097,345
1	0,000	117,178	2097,748
1	0,000	117,178	2098,151
1	0,000	117,228	2098,553
1	0,000	117,278	2098,956
1	0,000	117,278	2099,359
1	0,000	117,329	2099,762
1	0,000	117,378	2100,266
1	0,000	117,378	2100,668
1	0,000	117,429	2101,172
1	0,000	117,479	2101,474
1	0,000	117,479	2101,978
1	0,000	117,530	2102,380
1	0,000	117,580	2102,884
1	0,000	117,580	2103,589
1	0,000	117,630	2103,690
1	0,000	117,680	2104,193
1	0,000	117,680	2104,596
1	0,000	117,730	2104,999
1	0,000	117,780	2105,502
1	0,000	117,780	2105,905
1	0,000	117,830	2106,409
1	0,000	117,880	2106,812
1	0,000	117,880	2107,315
1	0,000	117,930	2107,718
1	0,000	117,980	2108,221
1	0,000	117,980	2108,624
1	0,000	118,030	2109,027
1	0,000	118,080	2109,531
1	0,000	118,080	2109,933
1	0,000	118,130	2110,437
1	0,000	118,180	2110,840
1	0,000	118,180	2111,444
1	0,000	118,231	2111,847
1	0,000	118,282	2112,250
1	0,000	118,282	2112,653
1	0,000	118,332	2113,156
1	0,000	118,383	2113,660
1	0,000	118,383	2114,062
1	0,000	118,432	2114,465
1	0,000	118,483	2114,969
1	0,000	118,483	2115,372
1	0,000	118,532	2115,875
1	0,000	118,583	2116,379
1	0,000	118,583	2116,882
1	0,000	118,633	2117,184
1	0,000	118,682	2117,789
1	0,000	118,682	2118,192
1	0,000	118,733	2118,594
1	0,000	118,783	2119,098
1	0,000	118,783	2119,601
1	0,000	118,833	2120,004
1	0,000	118,882	2120,508
1	0,000	118,882	2120,911
1	0,000	118,932	2121,414
1	0,000	118,983	2121,817
1	0,000	118,983	2122,321
1	0,000	119,033	2122,824
1	0,000	119,084	2123,227
1	0,000	119,084	2123,730
1	0,000	119,133	2124,234
1	0,000	119,183	2124,738
1	0,000	119,183	2125,140
1	0,000	119,233	2125,443
1	0,000	119,283	2126,047
1	0,000	119,283	2126,450
1	0,000	119,334	2126,953
1	0,000	119,384	2127,457
1	0,000	119,384	2127,859
1	0,000	119,434	2128,363
1	0,000	119,484	2128,867
1	0,000	119,484	2129,269
1	0,000	119,534	2129,773
1	0,000	119,584	2130,276
1	0,000	119,584	2130,679
1	0,000	119,635	2131,183
1	0,000	119,685	2131,686
1	0,000	119,685	2132,190
1	0,000	119,736	2132,693
1	0,000	119,786	2133,096
1	0,000	119,786	2133,499
1	0,000	119,836	2134,003
1	0,000	119,885	2134,406
1	0,000	119,885	2135,010
1	0,000	119,936	2135,413
1	0,000	119,986	2135,715
1	0,000	119,986	2136,319
1	0,000	120,036	2136,923
1	0,000	120,086	2137,326
1	0,000	120,086	2137,830
1	0,000	120,136	2138,434
1	0,000	120,186	2138,837
1	0,000	120,186	2139,340
1	0,000	120,236	2139,743
1	0,000	120,286	2140,247
1	0,000	120,286	2140,649
1	0,000	120,336	2141,153
1	0,000	120,386	2141,556
1	0,000	120,386	2142,059
1	0,000	120,436	2142,563
1	0,000	120,436	2142,966
1	0,000	120,486	2143,469
1	0,000	120,536	2143,973
1	0,000	120,536	2144,476
1	0,000	120,586	2144,879
1	0,000	120,636	2145,383
1	0,000	120,686	2145,886
1	0,000	120,686	2146,490
1	0,000	120,736	2146,893
1	0,000	120,736	2147,397
1	0,000	120,786	2147,800
1	0,000	120,836	2148,303
1	0,000	120,836	2148,807
1	0,000	120,886	2149,210
1	0,000	120,937	2149,814
1	0,000	120,937	2150,317
1	0,000	120,986	2150,720
1	0,000	121,037	2151,224
1	0,000	121,086	2151,627
1	0,000	121,086	2152,130
1	0,000	121,136	2152,634
1	0,000	121,136	2153,137
1	0,000	121,186	2153,741
1	0,000	121,236	2154,144
1	0,000	121,236	2154,648
1	0,000	121,286	2155,051
1	0,000	121,336	2155,655
1	0,000	121,336	2156,058
1	0,000	121,386	2156,561
1	0,000	121,436	2157,065
1	0,000	121,436	2157,468
1	0,000	121,486	2158,072
1	0,000	121,537	2158,575
1	0,000	121,537	2158,978
1	0,000	121,587	2159,583
1	0,000	121,637	2160,086
1	0,000	121,637	2160,489
1	0,000	121,687	2161,093
1	0,000	121,737	2161,597
1	0,000	121,737	2162,100
1	0,000	121,787	2162,704
1	0,000	121,837	2163,208
1	0,000	121,837	2163,611
1	0,000	121,887	2164,114
1	0,000	121,937	2164,517
1	0,000	121,937	2165,121
1	0,000	121,987	2165,625
1	0,000	122,037	2166,129
1	0,000	122,037	2166,431
1	0,000	122,087	2167,236
1	0,000	122,137	2167,136
1	0,000	122,137	2167,337
1	0,000	122,188	2168,243
1	0,000	122,237	2168,848
1	0,000	122,237	2169,250
1	0,000	122,287	2169,754
1	0,000	122,337	2170,157
1	0,000	122,337	2170,660
1	0,000	122,388	2171,265
1	0,000	122,438	2171,768
1	0,000	122,438	2172,171
1	0,000	122,488	2172,675
1	0,000	122,538	2173,077
1	0,000	122,538	2173,682
1	0,000	122,588	2174,185
1	0,000	122,638	2174,689
1	0,000	122,638	2175,192
1	0,000	122,689	2175,595
1	0,000	122,738	2176,199
1	0,000	122,738	2176,804
1	0,000	122,788	2177,206
1	0,000	122,838	2177,710
1	0,000	122,838	2178,214
1	0,000	122,889	2178,818
1	0,000	122,939	2179,221
1	0,000	122,939	2179,724
1	0,000	122,989	2180,228
1	0,000	123,039	2180,731
1	0,000	123,039	2181,235
1	0,000	123,089	2181,738
1	0,000	123,139	2182,242
1	0,000	123,139	2182,745
1	0,000	123,190	2183,148
1	0,000	123,239	2183,652
1	0,000	123,239	2184,256
1	0,000	123,290	2184,659
1	0,000	123,340	2185,263
1	0,000	123,340	2185,767
1	0,000	123,390	2186,169
1	0,000	123,440	2186,774
1	0,000	123,440	2187,277
1	0,000	123,490	2187,781
1	0,000	123,541	2188,284
1	0,000	123,541	2188,788
1	0,000	123,591	2189,291
1	0,000	123,641	2189,694
1	0,000	123,641	2190,298
1	0,000	123,692	2190,802
1	0,000	123,741	2191,306
1	0,000	123,741	2191,809
1	0,000	123,792	2192,313
1	0,000	123,842	2192,917
1	0,000	123,842	2193,622
1	0,000	123,892	2193,823
1	0,000	123,942	2194,226
1	0,000	123,942	2194,730
1	0,000	123,992	2195,233
1	0,000	124,043	2195,737
1	0,000	124,043	2196,341
1	0,000	124,093	2196,844
1	0,000	124,143	2197,348
1	0,000	124,143	2197,852
1	0,000	124,193	2198,355
1	0,000	124,243	2198,859
1	0,000	124,243	2199,362
1	0,000	124,293	2199,866
1	0,000	124,343	2200,369
1	0,000	124,343	2200,873
1	0,000	124,393	2201,477
1	0,000	124,444	2201,981
1	0,000	124,444	2202,585
1	0,000	124,494	2202,988
1	0,000	124,545	2203,491
1	0,000	124,545	2204,095
1	0,000	124,595	2204,599
1	0,000	124,644	2205,103
1	0,000	124,644	2205,606
1	0,000	124,694	2206,210
1	0,000	124,745	2206,714
1	0,000	124,745	2207,217
1	0,000	124,795	2207,822
1	0,000	124,845	2208,224
1	0,000	124,845	2208,728
1	0,000	124,895	2209,332
1	0,000	124,945	2209,836
1	0,000	124,945	2210,339
1	0,000	124,995	2210,843
1	0,000	125,046	2211,447
1	0,000	125,046	2211,850
1	0,000	125,096	2212,454
1	0,000	125,146	2212,958
1	0,000	125,146	2213,562
1	0,000	125,196	2214,066
1	0,000	125,246	2214,569
1	0,000	125,246	2215,173
1	0,000	125,296	2215,677
1	0,000	125,346	2216,180
1	0,000	125,346	2216,785
1	0,000	125,396	2217,187
1	0,000	125,447	2217,892
1	0,000	125,447	2218,497
1	0,000	125,497	2218,900
1	0,000	125,547	2219,504
1	0,000	125,547	2220,007
1	0,000	125,597	2220,612
1	0,000	125,647	2221,115
1	0,000	125,647	2221,619
1	0,000	125,697	2222,122
1	0,000	125,747	2222,726
1	0,000	125,747	2223,230
1	0,000	125,797	2223,834
1	0,000	125,848	2224,237
1	0,000	125,848	2224,942
1	0,000	125,898	2225,446
1	0,000	125,948	2226,050
1	0,000	125,948	2226,553
1	0,000	125,998	2227,158
1	0,000	126,048	2227,661
1	0,000	126,048	2228,165
1	0,000	126,097	2228,769
1	0,000	126,148	2229,272
1	0,000	126,148	2229,877
1	0,000	126,198	2230,380
1	0,000	126,248	2230,884
1	0,000	126,248	2231,589
1	0,000	126,299	2231,992
1	0,000	126,349	2232,596
1	0,000	126,349	2232,999
1	0,000	126,398	2233,603
1	0,000	126,448	2234,207
1	0,000	126,448	2234,711
1	0,000	126,498	2235,315
1	0,000	126,549	2235,818
1	0,000	126,549	2236,322
1	0,000	126,599	2236,926
1	0,000	126,649	2237,430
1	0,000	126,649	2238,034
1	0,000	126,699	2238,538
1	0,000	126,749	2239,142
1	0,000	126,749	2239,645
1	0,000	126,799	2240,250
1	0,000	126,849	2240,753
1	0,000	126,849	2241,357
1	0,000	126,899	2241,861
1	0,000	126,949	2242,465
1	0,000	126,949	2242,062
1	0,000	126,999	2243,573
1	0,000	127,049	2244,077
1	0,000	127,049	2244,580
1	0,000	127,099	2245,184
1	0,000	127,149	2245,688
1	0,000	127,149	2246,292
1	0,000	127,199	2246,796
1	0,000	127,249	2247,299
1	0,000	127,249	2247,903
1	0,000	127,299	2248,407
1	0,000	127,349	2248,911
1	0,000	127,349	2249,515
1	0,000	127,399	2250,018
1	0,000	127,449	2250,623
1	0,000	127,449	2251,328
1	0,000	127,499	2251,831
1	0,000	127,549	2252,335
1	0,000	127,549	2252,838
1	0,000	127,599	2253,342
1	0,000	127,599	2253,946
1	0,000	127,650	2254,550
1	0,000	127,701	2255,054
1	0,000	127,701	2255,658
1	0,000	127,751	2256,161
1	0,000	127,800	2256,766
1	0,000	127,800	2257,269
1	0,000	127,851	2257,874
1	0,000	127,901	2258,377
1	0,000	127,901	2258,881
1	0,000	127,952	2259,485
1	0,000	128,001	2259,988
1	0,000	128,001	2260,693
1	0,000	128,051	2261,096
1	0,000	128,101	2261,700
1	0,000	128,101	2262,204
1	0,000	128,151	2262,808
1	0,000	128,202	2263,412
1	0,000	128,202	2264,017
1	0,000	128,252	2264,520
1	0,000	128,302	2265,125
1	0,000	128,302	2265,729
1	0,000	128,352	2266,232
1	0,000	128,402	2266,736
1	0,000	128,402	2267,340
1	0,000	128,452	2267,944
1	0,000	128,502	2268,448
1	0,000	128,502	2269,052
1	0,000	128,553	2269,656
1	0,000	128,602	2270,160
1	0,000	128,602	2270,663
1	0,000	128,652	2271,368
1	0,000	128,703	2271,872
1	0,000	128,703	2272,476
1	0,000	128,753	2272,980
1	0,000	128,803	2273,685
1	0,000	128,803	2274,188
1	0,000	128,853	2274,792
1	0,000	128,904	2275,296
1	0,000	128,904	2275,900
1	0,000	128,953	2276,404
1	0,000	129,003	2277,109
1	0,000	129,003	2277,612
1	0,000	129,053	2278,217
1	0,000	129,103	2278,821
1	0,000	129,103	2279,425
1	0,000	129,153	2280,130
1	0,000	129,204	2280,734
1	0,000	129,204	2281,339
1	0,000	129,254	2281,943
1	0,000	129,304	2282,446
1	0,000	129,304	2282,950
1	0,000	129,355	2283,453
1	0,000	129,405	2284,058
1	0,000	129,405	2284,763
1	0,000	129,455	2285,266
1	0,000	129,505	2285,870
1	0,000	129,505	2286,475
1	0,000	129,555	2286,978
1	0,000	129,605	2287,683
1	0,000	129,605	2288,187
1	0,000	129,655	2288,791
1	0,000	129,705	2289,496
1	0,000	129,705	2290,100
1	0,000	129,755	2290,604
1	0,000	129,805	2291,208
1	0,000	129,805	2291,711
1	0,000	129,855	2292,316
1	0,000	129,905	2292,920
1	0,000	129,905	2293,524
1	0,000	129,955	2294,028
1	0,000	130,005	2294,632
1	0,000	130,005	2295,236
1	0,000	130,055	2295,740
1	0,000	130,105	2296,344
1	0,000	130,105	2296,948
1	0,000	130,155	2297,552
1	0,000	130,205	2298,157
1	0,000	130,205	2298,761
1	0,000	130,255	2299,365
1	0,000	130,305	2299,969
1	0,000	130,305	2300,574
1	0,000	130,355	2301,077
1	0,000	130,405	2301,682
1	0,000	130,405	2302,286
1	0,000	130,455	2302,789
1	0,000	130,505	2303,394
1	0,000	130,505	2304,099
1	0,000	130,555	2304,602
1	0,000	130,605	2305,206
1	0,000	130,605	2305,811
1	0,000	130,655	2306,415
1	0,000	130,706	2307,019
1	0,000	130,706	2307,623
1	0,000	130,756	2308,228
1	0,000	130,806	2308,832
1	0,000	130,806	2309,537
1	0,000	130,856	2309,940
1	0,000	130,907	2310,645
1	0,000	130,907	2311,249
1	0,000	130,957	2311,853
1	0,000	131,007	2312,457
1	0,000	131,007	2313,062
1	0,000	131,057	2313,666
1	0,000	131,108	2314,270
1	0,000	131,108	2314,874
1	0,000	131,159	2315,479
1	0,000	131,209	2316,083
1	0,000	131,209	2316,788
1	0,000	131,259	2317,291
1	0,000	131,310	2317,896
1	0,000	131,310	2318,600
1	0,000	131,360	2319,003
1	0,000	131,410	2319,708
1	0,000	131,410	2320,312
1	0,000	131,460	2320,917
1	0,000	131,510	2321,521
1	0,000	131,510	2322,125
1	0,000	131,561	2322,629
1	0,000	131,611	2323,434
1	0,000	131,611	2324,039
1	0,000	131,661	2324,643
1	0,000	131,711	2325,247
1	0,000	131,711	2325,851
1	0,000	131,762	2326,456
1	0,000	131,811	2327,060
1	0,000	131,811	2327,765
1	0,000	131,861	2328,268
1	0,000	131,912	2328,873
1	0,000	131,912	2329,376
1	0,000	131,962	2330,182
1	0,000	132,012	2330,685
1	0,000	132,012	2331,290
1	0,000	132,062	2331,894
1	0,000	132,112	2332,397
1	0,000	132,112	2333,002
1	0,000	132,162	2333,908
1	0,000	132,212	2334,412
1	0,000	132,212	2334,915
1	0,000	132,262	2335,721
1	0,000	132,312	2336,325
1	0,000	132,312	2336,728
1	0,000	132,362	2337,433
1	0,000	132,412	2337,936
1	0,000	132,412	2338,541
1	0,000	132,462	2339,246
1	0,000	132,512	2339,850
1	0,000	132,512	2340,454
1	0,000	132,562	2341,058
1	0,000	132,612	2341,763
1	0,000	132,612	2342,267
1	0,000	132,662	2342,871
1	0,000	132,712	2343,576
1	0,000	132,712	2344,080
1	0,000	132,762	2344,785
1	0,000	132,812	2345,389
1	0,000	132,812	2345,993
1	0,000	132,862	2346,698
1	0,000	132,912	2347,302
1	0,000	132,912	2347,906
1	0,000	132,962	2348,511
1	0,000	133,012	2349,115
1	0,000	133,012	2349,820
1	0,000	133,063	2350,323
1	0,000	133,113	2350,928
1	0,000	133,113	2351,532
1	0,000	133,163	2352,237
1	0,000	133,213	2352,841
1	0,000	133,213	2353,445
1	0,000	133,263	2354,050
1	0,000	133,313	2354,755
1	0,000	133,313	2355,359
1	0,000	133,363	2355,963
1	0,000	133,413	2356,668
1	0,000	133,413	2357,272
1	0,000	133,463	2358,078
1	0,000	133,513	2358,481
1	0,000	133,513	2359,186
1	0,000	133,564	2359,891
1	0,000	133,564	2360,495
1	0,000	133,613	2360,999
1	0,000	133,665	2361,603
1	0,000	133,665	2362,308
1	0,000	133,715	2362,711
1	0,000	133,764	2363,416
1	0,000	133,764	2364,020
1	0,000	133,814	2364,825
1	0,000	133,865	2365,329
1	0,000	133,865	2365,933
1	0,000	133,915	2366,638
1	0,000	133,966	2367,343
1	0,000	133,966	2367,947
1	0,000	134,016	2368,451
1	0,000	134,066	2369,055
1	0,000	134,066	2369,760
1	0,000	134,116	2370,364
1	0,000	134,166	2370,969
1	0,000	134,166	2371,674
1	0,000	134,216	2372,278
1	0,000	134,266	2372,882
1	0,000	134,266	2373,587
1	0,000	134,316	2374,191
1	0,000	134,367	2374,796
1	0,000	134,367	2375,400
1	0,000	134,416	2376,105
1	0,000	134,466	2376,709
1	0,000	134,466	2377,414
1	0,000	134,517	2378,119
1	0,000	134,568	2378,622
1	0,000	134,568	2379,327
1	0,000	134,617	2380,032
1	0,000	134,668	2380,637
1	0,000	134,668	2381,241
1	0,000	134,718	2382,047
1	0,000	134,768	2382,550
1	0,000	134,768	2383,154
1	0,000	134,818	2384,061
1	0,000	134,868	2384,766
1	0,000	134,868	2385,068
1	0,000	134,919	2385,873
1	0,000	134,969	2386,478
1	0,000	134,969	2387,686
1	0,000	135,020	2387,787
1	0,000	135,070	2388,693
1	0,000	135,070	2388,995
1	0,000	135,120	2389,700
1	0,000	135,171	2390,405
1	0,000	135,171	2390,909
1	0,000	135,220	2391,614
1	0,000	135,271	2392,319
1	0,000	135,271	2393,024
1	0,000	135,320	2393,628
1	0,000	135,371	2394,333
1	0,000	135,371	2394,937
1	0,000	135,421	2395,642
1	0,000	135,471	2396,347
1	0,000	135,471	2396,750
1	0,000	135,521	2397,556
1	0,000	135,571	2398,160
1	0,000	135,571	2398,764
1	0,000	135,621	2399,368
1	0,000	135,671	2399,973
1	0,000	135,671	2400,778
1	0,000	135,722	2401,282
1	0,000	135,772	2401,987
1	0,000	135,772	2402,692
1	0,000	135,822	2403,296
1	0,000	135,873	2404,001
1	0,000	135,873	2404,706
1	0,000	135,922	2405,310
1	0,000	135,973	2405,914
1	0,000	135,973	2406,619
1	0,000	136,022	2407,324
1	0,000	136,073	2407,928
1	0,000	136,073	2408,533
1	0,000	136,122	2409,238
1	0,000	136,173	2409,943
1	0,000	136,173	2410,648
1	0,000	136,223	2411,151
1	0,000	136,273	2411,755
1	0,000	136,273	2412,561
1	0,000	136,324	2413,165
1	0,000	136,374	2413,770
1	0,000	136,374	2414,474
1	0,000	136,424	2415,179
1	0,000	136,474	2415,784
1	0,000	136,474	2416,489
1	0,000	136,524	2417,194
1	0,000	136,574	2417,899
1	0,000	136,574	2418,503
1	0,000	136,624	2419,107
1	0,000	136,674	2419,812
1	0,000	136,674	2420,517
1	0,000	136,724	2421,021
1	0,000	136,774	2421,826
1	0,000	136,774	2422,430
1	0,000	136,825	2422,934
1	0,000	136,875	2423,639
1	0,000	136,875	2424,344
1	0,000	136,925	2424,948
1	0,000	136,976	2425,552
1	0,000	136,976	2426,257
1	0,000	137,026	2426,962
1	0,000	137,076	2427,768
1	0,000	137,076	2428,372
1	0,000	137,126	2428,976
1	0,000	137,176	2429,681
1	0,000	137,176	2430,286
1	0,000	137,227	2430,890
1	0,000	137,277	2431,696
1	0,000	137,277	2432,199
1	0,000	137,327	2432,803
1	0,000	137,377	2433,508
1	0,000	137,377	2433,911
1	0,000	137,427	2434,717
1	0,000	137,477	2435,522
1	0,000	137,477	2436,026
1	0,000	137,527	2436,832
1	0,000	137,577	2437,335
1	0,000	137,577	2438,141
1	0,000	137,627	2438,745
1	0,000	137,678	2439,551
1	0,000	137,678	2440,155
1	0,000	137,728	2440,558
1	0,000	137,728	2441,666
1	0,000	137,778	2442,169
1	0,000	137,828	2442,874
1	0,000	137,828	2443,478
1	0,000	137,878	2444,183
1	0,000	137,929	2444,888
1	0,000	137,979	2445,493
1	0,000	137,979	2446,198
1	0,000	138,029	2447,003
1	0,000	138,029	2447,607
1	0,000	138,078	2448,212
1	0,000	138,129	2448,816
1	0,000	138,129	2449,521
1	0,000	138,179	2450,125
1	0,000	138,230	2450,931
1	0,000	138,230	2451,736
1	0,000	138,280	2452,441
1	0,000	138,330	2452,844
1	0,000	138,330	2453,650
1	0,000	138,380	2454,254
1	0,000	138,431	2455,060
1	0,000	138,431	2455,765
1	0,000	138,481	2456,369
1	0,000	138,530	2457,074
1	0,000	138,530	2457,779
1	0,000	138,580	2458,484
1	0,000	138,630	2459,189
1	0,000	138,630	2459,692
1	0,000	138,681	2460,599
1	0,000	138,732	2461,203
1	0,000	138,732	2461,807
1	0,000	138,781	2462,311
1	0,000	138,832	2463,217
1	0,000	138,832	2463,821
1	0,000	138,882	2464,526
1	0,000	138,932	2465,231
1	0,000	138,932	2465,836
1	0,000	138,982	2466,541
1	0,000	139,032	2467,245
1	0,000	139,032	2467,950
1	0,000	139,082	2468,555
1	0,000	139,132	2469,260
1	0,000	139,132	2469,864
1	0,000	139,182	2470,569
1	0,000	139,233	2471,274
1	0,000	139,233	2471,979
1	0,000	139,282	2472,382
1	0,000	139,332	2473,288
1	0,000	139,332	2473,892
1	0,000	139,383	2474,698
1	0,000	139,432	2475,201
1	0,000	139,432	2476,108
1	0,000	139,483	2476,712
1	0,000	139,532	2477,518
1	0,000	139,532	2478,122
1	0,000	139,583	2478,928
1	0,000	139,633	2479,633
1	0,000	139,633	2480,237
1	0,000	139,683	2480,841
1	0,000	139,732	2481,445
1	0,000	139,732	2482,251
1	0,000	139,783	2482,855
1	0,000	139,833	2483,762
1	0,000	139,833	2484,265
1	0,000	139,883	2484,769
1	0,000	139,926	2485,272
1	0,000	139,926	2485,574
1	0,000	139,959	2485,876
1	0,000	139,983	2486,179
1	0,000	139,983	2485,977
1	0,000	139,996	2486,179
1	0,000	140,000	2486,179
1	0,000	140,000	2486,179
