Col.n° Rot(deg) Lin(mm) CHR(um)
1	0,000	80,095	1893,613
1	0,000	80,095	1893,613
1	0,000	80,143	1893,713
1	0,000	80,143	1893,512
1	0,000	80,193	1893,411
1	0,000	80,243	1893,411
1	0,000	80,243	1893,411
1	0,000	80,293	1893,814
1	0,000	80,343	1893,311
1	0,000	80,343	1893,311
1	0,000	80,393	1893,210
1	0,000	80,443	1893,210
1	0,000	80,443	1892,908
1	0,000	80,493	1893,109
1	0,000	80,543	1893,109
1	0,000	80,543	1893,109
1	0,000	80,593	1893,109
1	0,000	80,643	1893,109
1	0,000	80,643	1893,008
1	0,000	80,694	1892,908
1	0,000	80,744	1893,008
1	0,000	80,744	1892,807
1	0,000	80,794	1892,807
1	0,000	80,844	1892,807
1	0,000	80,844	1892,706
1	0,000	80,894	1892,706
1	0,000	80,894	1892,807
1	0,000	80,944	1892,807
1	0,000	80,995	1892,807
1	0,000	80,995	1892,908
1	0,000	81,045	1892,807
1	0,000	81,095	1892,606
1	0,000	81,095	1892,505
1	0,000	81,145	1892,606
1	0,000	81,196	1892,606
1	0,000	81,196	1892,606
1	0,000	81,246	1892,606
1	0,000	81,296	1892,505
1	0,000	81,296	1892,404
1	0,000	81,346	1892,404
1	0,000	81,397	1892,505
1	0,000	81,397	1892,404
1	0,000	81,447	1892,404
1	0,000	81,497	1892,203
1	0,000	81,497	1892,303
1	0,000	81,547	1892,203
1	0,000	81,597	1892,404
1	0,000	81,597	1892,303
1	0,000	81,647	1892,203
1	0,000	81,697	1892,203
1	0,000	81,697	1892,303
1	0,000	81,748	1892,001
1	0,000	81,798	1892,102
1	0,000	81,798	1892,102
1	0,000	81,849	1892,001
1	0,000	81,898	1892,001
1	0,000	81,898	1892,001
1	0,000	81,948	1892,001
1	0,000	81,998	1891,901
1	0,000	81,998	1891,699
1	0,000	82,048	1891,901
1	0,000	82,098	1891,901
1	0,000	82,098	1891,901
1	0,000	82,148	1891,800
1	0,000	82,198	1891,800
1	0,000	82,198	1891,800
1	0,000	82,249	1891,800
1	0,000	82,299	1891,699
1	0,000	82,299	1891,599
1	0,000	82,349	1891,699
1	0,000	82,399	1891,901
1	0,000	82,399	1891,699
1	0,000	82,449	1891,699
1	0,000	82,499	1891,800
1	0,000	82,499	1891,699
1	0,000	82,549	1891,699
1	0,000	82,600	1891,699
1	0,000	82,600	1891,800
1	0,000	82,649	1891,699
1	0,000	82,699	1891,599
1	0,000	82,699	1891,599
1	0,000	82,749	1891,599
1	0,000	82,800	1891,599
1	0,000	82,800	1891,498
1	0,000	82,850	1891,599
1	0,000	82,900	1891,599
1	0,000	82,900	1891,599
1	0,000	82,950	1891,599
1	0,000	83,001	1891,699
1	0,000	83,001	1891,498
1	0,000	83,050	1891,498
1	0,000	83,101	1891,599
1	0,000	83,101	1891,498
1	0,000	83,151	1891,397
1	0,000	83,201	1891,397
1	0,000	83,201	1891,397
1	0,000	83,252	1891,397
1	0,000	83,302	1891,397
1	0,000	83,302	1891,397
1	0,000	83,352	1891,397
1	0,000	83,402	1891,296
1	0,000	83,402	1891,296
1	0,000	83,452	1891,397
1	0,000	83,502	1891,296
1	0,000	83,502	1891,397
1	0,000	83,552	1891,397
1	0,000	83,603	1891,397
1	0,000	83,603	1891,397
1	0,000	83,653	1891,196
1	0,000	83,703	1891,397
1	0,000	83,703	1891,498
1	0,000	83,754	1891,397
1	0,000	83,804	1891,397
1	0,000	83,804	1891,397
1	0,000	83,854	1891,397
1	0,000	83,904	1891,296
1	0,000	83,904	1891,296
1	0,000	83,954	1891,296
1	0,000	84,004	1891,296
1	0,000	84,004	1891,296
1	0,000	84,054	1891,397
1	0,000	84,104	1891,397
1	0,000	84,104	1891,296
1	0,000	84,154	1891,397
1	0,000	84,204	1891,296
1	0,000	84,204	1891,296
1	0,000	84,254	1891,498
1	0,000	84,304	1891,397
1	0,000	84,304	1891,296
1	0,000	84,354	1891,296
1	0,000	84,404	1891,196
1	0,000	84,404	1891,296
1	0,000	84,454	1891,397
1	0,000	84,504	1891,397
1	0,000	84,504	1891,397
1	0,000	84,554	1891,397
1	0,000	84,605	1891,296
1	0,000	84,605	1891,397
1	0,000	84,655	1891,397
1	0,000	84,705	1891,498
1	0,000	84,705	1891,397
1	0,000	84,755	1891,498
1	0,000	84,805	1891,296
1	0,000	84,805	1891,498
1	0,000	84,855	1891,296
1	0,000	84,905	1891,296
1	0,000	84,905	1891,296
1	0,000	84,956	1891,397
1	0,000	85,007	1891,498
1	0,000	85,007	1891,397
1	0,000	85,057	1891,498
1	0,000	85,107	1891,397
1	0,000	85,107	1891,498
1	0,000	85,157	1891,599
1	0,000	85,207	1891,599
1	0,000	85,207	1891,599
1	0,000	85,258	1891,599
1	0,000	85,308	1891,498
1	0,000	85,308	1891,498
1	0,000	85,358	1891,498
1	0,000	85,408	1891,498
1	0,000	85,408	1891,599
1	0,000	85,457	1891,699
1	0,000	85,507	1891,699
1	0,000	85,507	1891,599
1	0,000	85,558	1891,397
1	0,000	85,607	1891,397
1	0,000	85,607	1891,599
1	0,000	85,657	1891,599
1	0,000	85,707	1891,699
1	0,000	85,707	1891,599
1	0,000	85,757	1891,599
1	0,000	85,808	1891,699
1	0,000	85,808	1891,699
1	0,000	85,858	1891,699
1	0,000	85,908	1891,699
1	0,000	85,908	1891,800
1	0,000	85,958	1891,699
1	0,000	85,958	1891,800
1	0,000	86,008	1891,599
1	0,000	86,059	1891,800
1	0,000	86,059	1891,901
1	0,000	86,109	1892,001
1	0,000	86,158	1891,901
1	0,000	86,158	1891,800
1	0,000	86,209	1891,901
1	0,000	86,259	1891,901
1	0,000	86,259	1891,800
1	0,000	86,309	1891,901
1	0,000	86,360	1891,901
1	0,000	86,360	1892,001
1	0,000	86,409	1891,901
1	0,000	86,459	1892,001
1	0,000	86,459	1892,001
1	0,000	86,509	1892,102
1	0,000	86,560	1892,102
1	0,000	86,560	1892,001
1	0,000	86,610	1892,102
1	0,000	86,660	1892,001
1	0,000	86,660	1892,001
1	0,000	86,709	1892,102
1	0,000	86,760	1892,001
1	0,000	86,760	1892,203
1	0,000	86,810	1892,102
1	0,000	86,860	1892,303
1	0,000	86,860	1892,203
1	0,000	86,910	1892,303
1	0,000	86,960	1892,303
1	0,000	86,960	1892,404
1	0,000	87,011	1892,404
1	0,000	87,061	1892,404
1	0,000	87,061	1892,404
1	0,000	87,111	1892,505
1	0,000	87,161	1892,505
1	0,000	87,161	1892,606
1	0,000	87,210	1892,606
1	0,000	87,261	1892,706
1	0,000	87,261	1892,706
1	0,000	87,310	1892,606
1	0,000	87,361	1892,807
1	0,000	87,361	1892,706
1	0,000	87,411	1892,505
1	0,000	87,461	1892,606
1	0,000	87,461	1892,606
1	0,000	87,511	1892,606
1	0,000	87,561	1892,706
1	0,000	87,561	1892,908
1	0,000	87,611	1892,908
1	0,000	87,661	1892,908
1	0,000	87,661	1893,008
1	0,000	87,711	1893,109
1	0,000	87,761	1893,109
1	0,000	87,761	1893,008
1	0,000	87,811	1893,109
1	0,000	87,862	1893,109
1	0,000	87,862	1893,210
1	0,000	87,912	1893,210
1	0,000	87,962	1893,210
1	0,000	87,962	1893,311
1	0,000	88,012	1893,411
1	0,000	88,061	1893,311
1	0,000	88,061	1893,512
1	0,000	88,112	1893,512
1	0,000	88,162	1893,512
1	0,000	88,162	1893,613
1	0,000	88,213	1893,814
1	0,000	88,263	1893,814
1	0,000	88,263	1893,915
1	0,000	88,313	1893,915
1	0,000	88,363	1893,814
1	0,000	88,363	1893,915
1	0,000	88,414	1893,915
1	0,000	88,464	1894,116
1	0,000	88,464	1893,915
1	0,000	88,514	1894,016
1	0,000	88,564	1894,016
1	0,000	88,564	1894,116
1	0,000	88,614	1894,318
1	0,000	88,665	1894,116
1	0,000	88,665	1894,318
1	0,000	88,715	1894,418
1	0,000	88,765	1894,720
1	0,000	88,765	1894,620
1	0,000	88,815	1894,519
1	0,000	88,865	1894,620
1	0,000	88,865	1894,519
1	0,000	88,915	1894,620
1	0,000	88,965	1894,519
1	0,000	88,965	1894,620
1	0,000	89,015	1894,620
1	0,000	89,065	1894,821
1	0,000	89,065	1894,821
1	0,000	89,115	1894,821
1	0,000	89,165	1894,922
1	0,000	89,165	1895,023
1	0,000	89,215	1895,023
1	0,000	89,266	1895,123
1	0,000	89,266	1895,123
1	0,000	89,316	1895,224
1	0,000	89,366	1895,325
1	0,000	89,366	1895,425
1	0,000	89,416	1895,526
1	0,000	89,466	1895,425
1	0,000	89,466	1895,728
1	0,000	89,516	1895,627
1	0,000	89,566	1895,728
1	0,000	89,566	1895,627
1	0,000	89,617	1895,627
1	0,000	89,667	1895,627
1	0,000	89,667	1895,828
1	0,000	89,716	1895,828
1	0,000	89,767	1895,929
1	0,000	89,767	1896,030
1	0,000	89,817	1895,929
1	0,000	89,867	1896,030
1	0,000	89,867	1896,130
1	0,000	89,918	1896,332
1	0,000	89,968	1896,231
1	0,000	89,968	1896,432
1	0,000	90,017	1896,533
1	0,000	90,067	1896,432
1	0,000	90,067	1895,828
1	0,000	90,118	1896,634
1	0,000	90,168	1896,735
1	0,000	90,168	1896,835
1	0,000	90,218	1896,634
1	0,000	90,269	1896,735
1	0,000	90,269	1896,835
1	0,000	90,320	1897,037
1	0,000	90,369	1896,835
1	0,000	90,369	1896,936
1	0,000	90,419	1897,641
1	0,000	90,470	1897,238
1	0,000	90,470	1897,440
1	0,000	90,520	1897,440
1	0,000	90,570	1897,540
1	0,000	90,570	1897,540
1	0,000	90,620	1897,641
1	0,000	90,670	1897,641
1	0,000	90,670	1897,742
1	0,000	90,720	1897,943
1	0,000	90,770	1897,943
1	0,000	90,770	1897,943
1	0,000	90,820	1898,145
1	0,000	90,869	1898,145
1	0,000	90,869	1898,245
1	0,000	90,920	1898,245
1	0,000	90,970	1898,346
1	0,000	90,970	1898,447
1	0,000	91,020	1898,547
1	0,000	91,070	1898,547
1	0,000	91,070	1898,648
1	0,000	91,120	1898,749
1	0,000	91,170	1898,648
1	0,000	91,170	1898,849
1	0,000	91,220	1899,051
1	0,000	91,270	1899,051
1	0,000	91,270	1899,152
1	0,000	91,320	1899,152
1	0,000	91,371	1899,252
1	0,000	91,371	1899,252
1	0,000	91,421	1899,353
1	0,000	91,471	1899,454
1	0,000	91,471	1899,554
1	0,000	91,522	1899,554
1	0,000	91,572	1899,655
1	0,000	91,572	1899,756
1	0,000	91,622	1899,857
1	0,000	91,622	1899,957
1	0,000	91,673	1899,957
1	0,000	91,723	1900,058
1	0,000	91,723	1900,058
1	0,000	91,773	1900,259
1	0,000	91,823	1900,259
1	0,000	91,823	1900,360
1	0,000	91,873	1900,360
1	0,000	91,923	1900,461
1	0,000	91,923	1900,562
1	0,000	91,973	1900,662
1	0,000	92,024	1900,662
1	0,000	92,024	1900,864
1	0,000	92,074	1900,864
1	0,000	92,124	1900,964
1	0,000	92,124	1901,065
1	0,000	92,174	1901,166
1	0,000	92,225	1901,266
1	0,000	92,225	1901,266
1	0,000	92,274	1901,468
1	0,000	92,325	1901,468
1	0,000	92,325	1901,569
1	0,000	92,375	1901,669
1	0,000	92,425	1901,770
1	0,000	92,425	1901,871
1	0,000	92,475	1901,971
1	0,000	92,525	1902,072
1	0,000	92,525	1902,173
1	0,000	92,575	1902,374
1	0,000	92,625	1902,475
1	0,000	92,625	1902,576
1	0,000	92,675	1902,676
1	0,000	92,725	1902,777
1	0,000	92,725	1902,878
1	0,000	92,776	1902,878
1	0,000	92,825	1902,979
1	0,000	92,825	1903,079
1	0,000	92,876	1903,180
1	0,000	92,926	1903,281
1	0,000	92,926	1903,381
1	0,000	92,976	1903,482
1	0,000	93,026	1903,583
1	0,000	93,026	1903,784
1	0,000	93,076	1903,885
1	0,000	93,127	1903,986
1	0,000	93,127	1904,086
1	0,000	93,177	1904,187
1	0,000	93,227	1904,288
1	0,000	93,227	1904,288
1	0,000	93,277	1904,388
1	0,000	93,328	1904,388
1	0,000	93,328	1904,590
1	0,000	93,378	1904,590
1	0,000	93,428	1904,791
1	0,000	93,428	1904,993
1	0,000	93,478	1904,993
1	0,000	93,528	1905,194
1	0,000	93,528	1905,194
1	0,000	93,579	1905,295
1	0,000	93,629	1905,396
1	0,000	93,629	1905,496
1	0,000	93,680	1905,496
1	0,000	93,729	1905,698
1	0,000	93,729	1905,798
1	0,000	93,780	1905,899
1	0,000	93,831	1906,000
1	0,000	93,831	1906,201
1	0,000	93,881	1906,201
1	0,000	93,930	1906,403
1	0,000	93,930	1906,503
1	0,000	93,981	1906,705
1	0,000	94,031	1906,705
1	0,000	94,031	1906,906
1	0,000	94,081	1907,007
1	0,000	94,132	1907,007
1	0,000	94,132	1907,108
1	0,000	94,182	1907,309
1	0,000	94,232	1907,410
1	0,000	94,232	1907,410
1	0,000	94,282	1907,510
1	0,000	94,333	1907,611
1	0,000	94,333	1907,712
1	0,000	94,382	1907,812
1	0,000	94,432	1907,913
1	0,000	94,432	1908,014
1	0,000	94,482	1908,115
1	0,000	94,533	1908,215
1	0,000	94,533	1908,316
1	0,000	94,584	1908,517
1	0,000	94,634	1908,618
1	0,000	94,634	1908,719
1	0,000	94,683	1908,820
1	0,000	94,734	1908,920
1	0,000	94,734	1909,122
1	0,000	94,784	1909,122
1	0,000	94,834	1909,323
1	0,000	94,834	1909,424
1	0,000	94,884	1909,525
1	0,000	94,934	1909,625
1	0,000	94,934	1909,827
1	0,000	94,984	1910,028
1	0,000	95,034	1910,129
1	0,000	95,034	1910,229
1	0,000	95,085	1910,330
1	0,000	95,135	1910,431
1	0,000	95,135	1910,532
1	0,000	95,185	1910,632
1	0,000	95,236	1910,934
1	0,000	95,236	1910,934
1	0,000	95,286	1911,136
1	0,000	95,336	1911,237
1	0,000	95,336	1911,337
1	0,000	95,386	1911,438
1	0,000	95,436	1911,639
1	0,000	95,436	1911,841
1	0,000	95,487	1911,942
1	0,000	95,536	1912,042
1	0,000	95,536	1912,344
1	0,000	95,587	1912,546
1	0,000	95,637	1912,546
1	0,000	95,637	1912,646
1	0,000	95,687	1912,747
1	0,000	95,736	1912,949
1	0,000	95,736	1913,150
1	0,000	95,787	1913,150
1	0,000	95,836	1913,251
1	0,000	95,836	1913,452
1	0,000	95,887	1913,654
1	0,000	95,936	1913,754
1	0,000	95,936	1913,956
1	0,000	95,987	1914,056
1	0,000	96,037	1914,258
1	0,000	96,037	1914,359
1	0,000	96,086	1914,459
1	0,000	96,137	1914,459
1	0,000	96,137	1914,661
1	0,000	96,187	1914,862
1	0,000	96,237	1914,761
1	0,000	96,237	1915,063
1	0,000	96,286	1915,164
1	0,000	96,337	1915,265
1	0,000	96,337	1915,567
1	0,000	96,386	1915,567
1	0,000	96,437	1915,668
1	0,000	96,437	1915,869
1	0,000	96,486	1915,970
1	0,000	96,536	1916,171
1	0,000	96,536	1916,272
1	0,000	96,587	1916,373
1	0,000	96,636	1916,574
1	0,000	96,636	1916,776
1	0,000	96,687	1916,977
1	0,000	96,736	1917,078
1	0,000	96,736	1917,178
1	0,000	96,787	1917,380
1	0,000	96,837	1917,480
1	0,000	96,837	1917,581
1	0,000	96,886	1917,783
1	0,000	96,936	1917,883
1	0,000	96,936	1918,185
1	0,000	96,987	1918,185
1	0,000	97,037	1918,286
1	0,000	97,037	1918,488
1	0,000	97,087	1918,588
1	0,000	97,136	1918,689
1	0,000	97,136	1918,890
1	0,000	97,187	1918,991
1	0,000	97,237	1919,193
1	0,000	97,237	1919,293
1	0,000	97,287	1919,394
1	0,000	97,287	1919,595
1	0,000	97,338	1919,797
1	0,000	97,388	1919,897
1	0,000	97,388	1920,300
1	0,000	97,438	1920,300
1	0,000	97,488	1920,401
1	0,000	97,488	1920,602
1	0,000	97,538	1920,703
1	0,000	97,588	1920,905
1	0,000	97,588	1921,106
1	0,000	97,638	1921,307
1	0,000	97,689	1921,408
1	0,000	97,689	1921,609
1	0,000	97,739	1921,811
1	0,000	97,789	1921,912
1	0,000	97,789	1922,113
1	0,000	97,840	1922,314
1	0,000	97,890	1922,516
1	0,000	97,890	1922,717
1	0,000	97,940	1922,818
1	0,000	97,990	1922,919
1	0,000	97,990	1923,120
1	0,000	98,041	1923,221
1	0,000	98,091	1923,322
1	0,000	98,091	1923,624
1	0,000	98,141	1923,724
1	0,000	98,191	1923,926
1	0,000	98,191	1924,127
1	0,000	98,242	1924,429
1	0,000	98,292	1924,530
1	0,000	98,292	1924,631
1	0,000	98,341	1924,832
1	0,000	98,392	1925,034
1	0,000	98,392	1925,235
1	0,000	98,442	1925,436
1	0,000	98,492	1925,537
1	0,000	98,492	1925,739
1	0,000	98,543	1925,940
1	0,000	98,592	1926,041
1	0,000	98,592	1926,242
1	0,000	98,643	1926,443
1	0,000	98,693	1926,645
1	0,000	98,693	1926,746
1	0,000	98,743	1926,947
1	0,000	98,793	1927,148
1	0,000	98,793	1927,249
1	0,000	98,843	1927,451
1	0,000	98,893	1927,551
1	0,000	98,893	1927,652
1	0,000	98,943	1927,954
1	0,000	98,993	1928,156
1	0,000	98,993	1928,357
1	0,000	99,043	1928,458
1	0,000	99,093	1928,659
1	0,000	99,093	1928,860
1	0,000	99,144	1929,163
1	0,000	99,194	1929,263
1	0,000	99,194	1929,465
1	0,000	99,244	1929,666
1	0,000	99,294	1929,868
1	0,000	99,294	1929,968
1	0,000	99,345	1930,170
1	0,000	99,395	1930,371
1	0,000	99,395	1930,472
1	0,000	99,445	1930,673
1	0,000	99,495	1930,875
1	0,000	99,495	1931,076
1	0,000	99,545	1931,177
1	0,000	99,595	1931,479
1	0,000	99,595	1931,580
1	0,000	99,646	1931,882
1	0,000	99,696	1931,982
1	0,000	99,696	1932,184
1	0,000	99,745	1932,385
1	0,000	99,796	1932,587
1	0,000	99,796	1932,788
1	0,000	99,846	1932,889
1	0,000	99,896	1933,090
1	0,000	99,896	1933,191
1	0,000	99,946	1933,392
1	0,000	99,996	1933,594
1	0,000	99,996	1933,795
1	0,000	100,046	1933,997
1	0,000	100,096	1934,198
1	0,000	100,096	1934,399
1	0,000	100,147	1934,601
1	0,000	100,197	1934,903
1	0,000	100,197	1934,903
1	0,000	100,247	1935,205
1	0,000	100,297	1935,406
1	0,000	100,297	1935,507
1	0,000	100,347	1935,809
1	0,000	100,397	1936,011
1	0,000	100,397	1936,212
1	0,000	100,447	1936,414
1	0,000	100,497	1936,615
1	0,000	100,497	1936,816
1	0,000	100,547	1937,119
1	0,000	100,597	1937,320
1	0,000	100,597	1937,421
1	0,000	100,647	1937,622
1	0,000	100,697	1937,924
1	0,000	100,697	1938,025
1	0,000	100,747	1938,226
1	0,000	100,797	1938,528
1	0,000	100,797	1938,629
1	0,000	100,848	1938,931
1	0,000	100,898	1939,133
1	0,000	100,898	1939,334
1	0,000	100,947	1939,536
1	0,000	100,998	1939,737
1	0,000	100,998	1939,938
1	0,000	101,048	1940,140
1	0,000	101,099	1940,341
1	0,000	101,099	1940,543
1	0,000	101,149	1940,744
1	0,000	101,199	1940,945
1	0,000	101,199	1941,147
1	0,000	101,249	1941,449
1	0,000	101,299	1941,650
1	0,000	101,299	1941,852
1	0,000	101,349	1942,053
1	0,000	101,399	1942,255
1	0,000	101,399	1942,456
1	0,000	101,449	1942,657
1	0,000	101,499	1942,859
1	0,000	101,499	1943,060
1	0,000	101,549	1943,362
1	0,000	101,599	1943,564
1	0,000	101,599	1943,866
1	0,000	101,650	1944,067
1	0,000	101,700	1944,269
1	0,000	101,700	1944,370
1	0,000	101,750	1944,772
1	0,000	101,800	1944,974
1	0,000	101,800	1945,175
1	0,000	101,851	1945,276
1	0,000	101,900	1945,578
1	0,000	101,900	1945,779
1	0,000	101,950	1945,981
1	0,000	102,001	1946,283
1	0,000	102,001	1946,484
1	0,000	102,051	1946,686
1	0,000	102,101	1946,887
1	0,000	102,101	1947,089
1	0,000	102,151	1947,290
1	0,000	102,151	1947,491
1	0,000	102,202	1947,794
1	0,000	102,252	1947,894
1	0,000	102,252	1948,297
1	0,000	102,302	1948,499
1	0,000	102,352	1948,700
1	0,000	102,352	1948,901
1	0,000	102,403	1949,203
1	0,000	102,452	1949,304
1	0,000	102,452	1949,506
1	0,000	102,503	1949,808
1	0,000	102,553	1950,009
1	0,000	102,553	1950,211
1	0,000	102,603	1950,513
1	0,000	102,653	1950,613
1	0,000	102,653	1950,815
1	0,000	102,703	1951,016
1	0,000	102,753	1951,218
1	0,000	102,753	1951,520
1	0,000	102,803	1951,822
1	0,000	102,853	1952,023
1	0,000	102,853	1952,225
1	0,000	102,903	1952,426
1	0,000	102,953	1952,628
1	0,000	102,953	1952,829
1	0,000	103,003	1953,030
1	0,000	103,054	1953,232
1	0,000	103,054	1953,534
1	0,000	103,104	1953,735
1	0,000	103,155	1953,836
1	0,000	103,155	1954,239
1	0,000	103,205	1954,440
1	0,000	103,255	1954,742
1	0,000	103,255	1954,944
1	0,000	103,305	1955,145
1	0,000	103,355	1955,347
1	0,000	103,355	1955,649
1	0,000	103,405	1955,850
1	0,000	103,455	1956,152
1	0,000	103,455	1956,354
1	0,000	103,504	1956,555
1	0,000	103,555	1956,857
1	0,000	103,555	1957,059
1	0,000	103,605	1957,361
1	0,000	103,655	1957,562
1	0,000	103,655	1957,864
1	0,000	103,705	1958,066
1	0,000	103,756	1958,368
1	0,000	103,756	1958,569
1	0,000	103,806	1958,771
1	0,000	103,856	1958,972
1	0,000	103,856	1959,274
1	0,000	103,906	1959,476
1	0,000	103,956	1959,778
1	0,000	103,956	1959,979
1	0,000	104,007	1960,281
1	0,000	104,057	1960,483
1	0,000	104,057	1960,684
1	0,000	104,106	1961,087
1	0,000	104,156	1961,188
1	0,000	104,156	1961,490
1	0,000	104,207	1961,792
1	0,000	104,257	1962,094
1	0,000	104,257	1962,296
1	0,000	104,307	1962,598
1	0,000	104,358	1962,799
1	0,000	104,358	1963,202
1	0,000	104,408	1963,303
1	0,000	104,458	1963,605
1	0,000	104,458	1963,705
1	0,000	104,507	1964,008
1	0,000	104,558	1964,310
1	0,000	104,558	1964,511
1	0,000	104,608	1964,713
1	0,000	104,658	1965,015
1	0,000	104,658	1965,417
1	0,000	104,709	1965,720
1	0,000	104,759	1965,921
1	0,000	104,759	1966,223
1	0,000	104,810	1966,525
1	0,000	104,859	1966,727
1	0,000	104,859	1966,928
1	0,000	104,909	1967,230
1	0,000	104,960	1967,432
1	0,000	104,960	1967,734
1	0,000	105,010	1968,036
1	0,000	105,059	1968,338
1	0,000	105,059	1968,539
1	0,000	105,110	1968,842
1	0,000	105,160	1969,043
1	0,000	105,160	1969,547
1	0,000	105,210	1969,647
1	0,000	105,260	1969,949
1	0,000	105,260	1970,251
1	0,000	105,310	1970,554
1	0,000	105,361	1970,755
1	0,000	105,361	1971,057
1	0,000	105,411	1971,259
1	0,000	105,461	1971,661
1	0,000	105,461	1971,863
1	0,000	105,512	1972,064
1	0,000	105,562	1972,467
1	0,000	105,562	1972,668
1	0,000	105,612	1972,971
1	0,000	105,663	1973,172
1	0,000	105,663	1973,474
1	0,000	105,713	1973,776
1	0,000	105,763	1974,078
1	0,000	105,763	1974,280
1	0,000	105,813	1974,582
1	0,000	105,863	1975,186
1	0,000	105,863	1975,287
1	0,000	105,913	1975,388
1	0,000	105,964	1975,690
1	0,000	105,964	1975,992
1	0,000	106,014	1976,294
1	0,000	106,063	1976,495
1	0,000	106,063	1976,797
1	0,000	106,114	1976,898
1	0,000	106,164	1977,301
1	0,000	106,164	1977,603
1	0,000	106,214	1978,006
1	0,000	106,265	1978,207
1	0,000	106,265	1978,510
1	0,000	106,316	1978,711
1	0,000	106,316	1979,013
1	0,000	106,366	1979,315
1	0,000	106,417	1979,617
1	0,000	106,417	1979,919
1	0,000	106,466	1980,222
1	0,000	106,516	1980,524
1	0,000	106,516	1980,826
1	0,000	106,566	1981,128
1	0,000	106,617	1981,430
1	0,000	106,617	1981,732
1	0,000	106,666	1982,034
1	0,000	106,717	1982,336
1	0,000	106,717	1982,639
1	0,000	106,767	1982,941
1	0,000	106,817	1983,243
1	0,000	106,817	1983,545
1	0,000	106,867	1983,847
1	0,000	106,917	1984,149
1	0,000	106,917	1984,451
1	0,000	106,967	1984,753
1	0,000	107,017	1985,056
1	0,000	107,017	1985,358
1	0,000	107,067	1985,660
1	0,000	107,117	1985,962
1	0,000	107,117	1986,264
1	0,000	107,167	1987,170
1	0,000	107,217	1987,070
1	0,000	107,217	1987,775
1	0,000	107,267	1987,775
1	0,000	107,317	1987,976
1	0,000	107,317	1988,177
1	0,000	107,367	1988,580
1	0,000	107,417	1988,782
1	0,000	107,417	1989,084
1	0,000	107,467	1989,285
1	0,000	107,517	1989,587
1	0,000	107,517	1989,890
1	0,000	107,567	1990,192
1	0,000	107,618	1990,494
1	0,000	107,618	1990,796
1	0,000	107,668	1991,098
1	0,000	107,718	1991,400
1	0,000	107,718	1991,602
1	0,000	107,769	1991,904
1	0,000	107,819	1992,307
1	0,000	107,819	1992,609
1	0,000	107,869	1993,011
1	0,000	107,919	1993,213
1	0,000	107,919	1993,616
1	0,000	107,969	1993,918
1	0,000	108,019	1994,321
1	0,000	108,019	1994,522
1	0,000	108,069	1994,824
1	0,000	108,119	1995,227
1	0,000	108,119	1995,529
1	0,000	108,169	1995,831
1	0,000	108,220	1996,133
1	0,000	108,220	1996,436
1	0,000	108,270	1996,838
1	0,000	108,321	1997,040
1	0,000	108,321	1997,342
1	0,000	108,371	1997,745
1	0,000	108,421	1998,047
1	0,000	108,421	1998,450
1	0,000	108,471	1998,752
1	0,000	108,521	1999,054
1	0,000	108,521	1999,457
1	0,000	108,572	1999,860
1	0,000	108,622	1999,960
1	0,000	108,622	2000,262
1	0,000	108,672	2000,665
1	0,000	108,723	2000,967
1	0,000	108,723	2001,270
1	0,000	108,773	2001,572
1	0,000	108,822	2001,874
1	0,000	108,822	2002,277
1	0,000	108,873	2002,478
1	0,000	108,923	2003,082
1	0,000	108,923	2003,485
1	0,000	108,973	2003,485
1	0,000	109,024	2003,787
1	0,000	109,024	2004,089
1	0,000	109,074	2004,492
1	0,000	109,124	2004,794
1	0,000	109,124	2005,096
1	0,000	109,174	2005,499
1	0,000	109,224	2005,801
1	0,000	109,224	2006,204
1	0,000	109,274	2006,506
1	0,000	109,324	2006,909
1	0,000	109,324	2007,312
1	0,000	109,374	2007,614
1	0,000	109,425	2007,916
1	0,000	109,425	2008,319
1	0,000	109,475	2008,621
1	0,000	109,525	2008,923
1	0,000	109,525	2009,326
1	0,000	109,575	2009,729
1	0,000	109,625	2010,031
1	0,000	109,625	2010,333
1	0,000	109,675	2010,635
1	0,000	109,725	2010,937
1	0,000	109,725	2011,340
1	0,000	109,775	2011,642
1	0,000	109,825	2012,045
1	0,000	109,825	2012,347
1	0,000	109,876	2012,650
1	0,000	109,926	2013,052
1	0,000	109,926	2013,354
1	0,000	109,976	2013,657
1	0,000	110,026	2013,959
1	0,000	110,026	2014,462
1	0,000	110,077	2014,664
1	0,000	110,127	2015,067
1	0,000	110,127	2015,469
1	0,000	110,177	2015,771
1	0,000	110,227	2016,174
1	0,000	110,227	2016,476
1	0,000	110,278	2016,779
1	0,000	110,327	2017,181
1	0,000	110,327	2017,484
1	0,000	110,377	2017,886
1	0,000	110,427	2018,188
1	0,000	110,427	2018,491
1	0,000	110,478	2018,893
1	0,000	110,527	2019,196
1	0,000	110,527	2019,598
1	0,000	110,578	2020,001
1	0,000	110,628	2020,303
1	0,000	110,628	2020,706
1	0,000	110,678	2021,008
1	0,000	110,729	2021,411
1	0,000	110,729	2021,613
1	0,000	110,779	2022,015
1	0,000	110,829	2022,318
1	0,000	110,829	2022,620
1	0,000	110,880	2022,922
1	0,000	110,930	2023,325
1	0,000	110,930	2023,627
1	0,000	110,981	2023,929
1	0,000	110,981	2024,332
1	0,000	111,030	2024,634
1	0,000	111,081	2025,037
1	0,000	111,081	2025,339
1	0,000	111,131	2025,742
1	0,000	111,182	2026,044
1	0,000	111,182	2026,447
1	0,000	111,232	2026,749
1	0,000	111,282	2027,051
1	0,000	111,282	2027,454
1	0,000	111,332	2027,856
1	0,000	111,382	2028,159
1	0,000	111,382	2028,461
1	0,000	111,432	2028,864
1	0,000	111,483	2029,266
1	0,000	111,483	2029,669
1	0,000	111,533	2029,971
1	0,000	111,583	2030,374
1	0,000	111,583	2030,777
1	0,000	111,633	2031,079
1	0,000	111,683	2031,482
1	0,000	111,683	2031,985
1	0,000	111,733	2032,288
1	0,000	111,783	2032,791
1	0,000	111,783	2033,093
1	0,000	111,833	2033,496
1	0,000	111,883	2033,798
1	0,000	111,883	2034,201
1	0,000	111,933	2034,604
1	0,000	111,983	2034,906
1	0,000	111,983	2035,208
1	0,000	112,033	2035,510
1	0,000	112,084	2035,812
1	0,000	112,084	2036,115
1	0,000	112,134	2036,517
1	0,000	112,184	2036,819
1	0,000	112,184	2037,122
1	0,000	112,234	2037,524
1	0,000	112,285	2037,827
1	0,000	112,285	2038,229
1	0,000	112,335	2038,632
1	0,000	112,384	2038,934
1	0,000	112,384	2039,236
1	0,000	112,435	2039,639
1	0,000	112,485	2040,143
1	0,000	112,485	2040,546
1	0,000	112,536	2040,848
1	0,000	112,586	2041,251
1	0,000	112,586	2041,553
1	0,000	112,635	2042,056
1	0,000	112,685	2042,358
1	0,000	112,685	2042,761
1	0,000	112,735	2043,164
1	0,000	112,786	2043,567
1	0,000	112,786	2043,970
1	0,000	112,836	2044,272
1	0,000	112,887	2044,876
1	0,000	112,887	2045,279
1	0,000	112,936	2045,782
1	0,000	112,986	2046,085
1	0,000	112,986	2046,487
1	0,000	113,037	2046,790
1	0,000	113,087	2047,092
1	0,000	113,087	2047,495
1	0,000	113,137	2047,797
1	0,000	113,187	2048,099
1	0,000	113,187	2048,502
1	0,000	113,237	2048,804
1	0,000	113,287	2049,106
1	0,000	113,287	2049,509
1	0,000	113,337	2049,911
1	0,000	113,387	2050,314
1	0,000	113,387	2050,717
1	0,000	113,437	2051,019
1	0,000	113,487	2051,422
1	0,000	113,487	2051,825
1	0,000	113,537	2052,127
1	0,000	113,587	2052,631
1	0,000	113,587	2052,933
1	0,000	113,637	2053,436
1	0,000	113,688	2053,839
1	0,000	113,688	2054,242
1	0,000	113,738	2054,544
1	0,000	113,788	2054,947
1	0,000	113,788	2055,450
1	0,000	113,838	2055,753
1	0,000	113,888	2056,155
1	0,000	113,888	2056,558
1	0,000	113,938	2056,860
1	0,000	113,989	2057,364
1	0,000	113,989	2057,666
1	0,000	114,039	2058,170
1	0,000	114,089	2058,572
1	0,000	114,089	2058,975
1	0,000	114,139	2059,378
1	0,000	114,189	2059,781
1	0,000	114,189	2060,184
1	0,000	114,239	2060,587
1	0,000	114,290	2060,989
1	0,000	114,290	2061,292
1	0,000	114,341	2061,795
1	0,000	114,390	2062,198
1	0,000	114,390	2062,601
1	0,000	114,441	2062,903
1	0,000	114,491	2063,406
1	0,000	114,491	2063,809
1	0,000	114,541	2064,212
1	0,000	114,591	2064,716
1	0,000	114,591	2065,018
1	0,000	114,641	2065,421
1	0,000	114,692	2065,924
1	0,000	114,692	2066,327
1	0,000	114,742	2066,730
1	0,000	114,792	2067,233
1	0,000	114,792	2067,535
1	0,000	114,843	2068,039
1	0,000	114,893	2068,542
1	0,000	114,893	2068,945
1	0,000	114,942	2069,348
1	0,000	114,993	2069,751
1	0,000	114,993	2070,053
1	0,000	115,043	2070,456
1	0,000	115,093	2070,859
1	0,000	115,093	2071,362
1	0,000	115,143	2071,664
1	0,000	115,193	2072,067
1	0,000	115,193	2072,571
1	0,000	115,244	2072,974
1	0,000	115,293	2073,376
1	0,000	115,293	2073,779
1	0,000	115,344	2074,182
1	0,000	115,394	2074,484
1	0,000	115,394	2074,988
1	0,000	115,444	2075,391
1	0,000	115,494	2075,793
1	0,000	115,494	2076,196
1	0,000	115,545	2076,700
1	0,000	115,594	2077,103
1	0,000	115,594	2077,505
1	0,000	115,645	2078,009
1	0,000	115,695	2078,412
1	0,000	115,695	2078,815
1	0,000	115,744	2079,218
1	0,000	115,744	2079,620
1	0,000	115,795	2080,124
1	0,000	115,846	2080,426
1	0,000	115,846	2080,930
1	0,000	115,895	2081,332
1	0,000	115,946	2081,735
1	0,000	115,946	2082,138
1	0,000	115,997	2082,541
1	0,000	116,047	2082,944
1	0,000	116,047	2083,347
1	0,000	116,096	2083,749
1	0,000	116,147	2084,152
1	0,000	116,147	2084,656
1	0,000	116,197	2085,059
1	0,000	116,247	2085,461
1	0,000	116,247	2085,864
1	0,000	116,297	2086,267
1	0,000	116,347	2086,670
1	0,000	116,347	2087,073
1	0,000	116,397	2087,677
1	0,000	116,447	2087,979
1	0,000	116,447	2088,382
1	0,000	116,497	2088,885
1	0,000	116,547	2089,288
1	0,000	116,547	2089,792
1	0,000	116,597	2090,195
1	0,000	116,647	2090,598
1	0,000	116,647	2091,000
1	0,000	116,697	2091,504
1	0,000	116,747	2091,907
1	0,000	116,747	2092,310
1	0,000	116,797	2092,712
1	0,000	116,847	2093,115
1	0,000	116,847	2093,619
1	0,000	116,897	2093,921
1	0,000	116,947	2094,424
1	0,000	116,947	2094,928
1	0,000	116,997	2095,230
1	0,000	117,048	2095,734
1	0,000	117,048	2096,136
1	0,000	117,098	2096,640
1	0,000	117,148	2097,144
1	0,000	117,148	2097,546
1	0,000	117,198	2097,949
1	0,000	117,248	2098,352
1	0,000	117,248	2098,755
1	0,000	117,299	2099,258
1	0,000	117,349	2099,661
1	0,000	117,349	2100,064
1	0,000	117,399	2100,467
1	0,000	117,449	2100,870
1	0,000	117,449	2101,373
1	0,000	117,500	2101,776
1	0,000	117,550	2102,280
1	0,000	117,550	2102,582
1	0,000	117,601	2103,387
1	0,000	117,651	2103,589
1	0,000	117,651	2103,992
1	0,000	117,702	2104,395
1	0,000	117,752	2104,898
1	0,000	117,752	2105,301
1	0,000	117,802	2105,704
1	0,000	117,853	2106,207
1	0,000	117,853	2106,610
1	0,000	117,903	2107,114
1	0,000	117,953	2107,516
1	0,000	117,953	2107,919
1	0,000	118,003	2108,423
1	0,000	118,053	2108,926
1	0,000	118,053	2109,229
1	0,000	118,103	2109,732
1	0,000	118,153	2110,135
1	0,000	118,153	2110,638
1	0,000	118,204	2111,243
1	0,000	118,254	2111,545
1	0,000	118,254	2112,048
1	0,000	118,304	2112,451
1	0,000	118,353	2112,854
1	0,000	118,353	2113,358
1	0,000	118,404	2113,861
1	0,000	118,455	2114,365
1	0,000	118,455	2114,767
1	0,000	118,505	2115,170
1	0,000	118,555	2115,674
1	0,000	118,555	2116,077
1	0,000	118,605	2116,580
1	0,000	118,656	2116,983
1	0,000	118,656	2117,587
1	0,000	118,706	2117,990
1	0,000	118,756	2118,393
1	0,000	118,756	2118,896
1	0,000	118,806	2119,299
1	0,000	118,856	2119,803
1	0,000	118,856	2120,206
1	0,000	118,906	2120,709
1	0,000	118,957	2121,112
1	0,000	118,957	2121,616
1	0,000	119,007	2122,220
1	0,000	119,057	2122,623
1	0,000	119,057	2123,026
1	0,000	119,107	2123,529
1	0,000	119,158	2124,033
1	0,000	119,158	2124,536
1	0,000	119,208	2124,838
1	0,000	119,257	2125,241
1	0,000	119,257	2125,845
1	0,000	119,308	2126,248
1	0,000	119,358	2126,752
1	0,000	119,358	2127,255
1	0,000	119,408	2127,759
1	0,000	119,458	2128,162
1	0,000	119,458	2128,766
1	0,000	119,508	2129,068
1	0,000	119,558	2129,672
1	0,000	119,558	2130,075
1	0,000	119,608	2130,579
1	0,000	119,658	2130,981
1	0,000	119,658	2131,586
1	0,000	119,708	2131,888
1	0,000	119,759	2132,492
1	0,000	119,759	2132,895
1	0,000	119,808	2133,298
1	0,000	119,859	2133,801
1	0,000	119,859	2134,204
1	0,000	119,908	2134,708
1	0,000	119,958	2135,211
1	0,000	119,958	2135,513
1	0,000	120,009	2136,118
1	0,000	120,058	2136,722
1	0,000	120,058	2137,225
1	0,000	120,109	2137,729
1	0,000	120,159	2138,132
1	0,000	120,159	2138,736
1	0,000	120,209	2139,038
1	0,000	120,258	2139,542
1	0,000	120,258	2140,146
1	0,000	120,309	2140,549
1	0,000	120,359	2140,952
1	0,000	120,359	2141,455
1	0,000	120,408	2141,858
1	0,000	120,458	2142,361
1	0,000	120,458	2142,865
1	0,000	120,509	2143,369
1	0,000	120,559	2143,771
1	0,000	120,559	2144,174
1	0,000	120,609	2144,778
1	0,000	120,609	2145,181
1	0,000	120,659	2145,685
1	0,000	120,709	2146,188
1	0,000	120,709	2146,692
1	0,000	120,759	2147,195
1	0,000	120,809	2147,598
1	0,000	120,809	2148,203
1	0,000	120,859	2148,605
1	0,000	120,909	2149,109
1	0,000	120,959	2149,612
1	0,000	120,959	2150,116
1	0,000	121,009	2150,519
1	0,000	121,009	2151,022
1	0,000	121,059	2151,526
1	0,000	121,109	2152,029
1	0,000	121,159	2152,432
1	0,000	121,159	2153,036
1	0,000	121,210	2153,439
1	0,000	121,210	2153,943
1	0,000	121,259	2154,446
1	0,000	121,309	2154,849
1	0,000	121,309	2155,353
1	0,000	121,359	2155,957
1	0,000	121,410	2156,360
1	0,000	121,410	2156,863
1	0,000	121,460	2157,367
1	0,000	121,511	2157,870
1	0,000	121,511	2158,374
1	0,000	121,560	2158,878
1	0,000	121,611	2159,381
1	0,000	121,611	2159,885
1	0,000	121,661	2160,388
1	0,000	121,711	2160,892
1	0,000	121,711	2161,395
1	0,000	121,760	2161,899
1	0,000	121,811	2162,503
1	0,000	121,811	2163,007
1	0,000	121,861	2163,409
1	0,000	121,910	2164,014
1	0,000	121,910	2164,417
1	0,000	121,961	2165,021
1	0,000	122,010	2165,524
1	0,000	122,010	2165,927
1	0,000	122,061	2166,330
1	0,000	122,111	2166,934
1	0,000	122,111	2166,934
1	0,000	122,161	2167,337
1	0,000	122,211	2168,042
1	0,000	122,211	2168,646
1	0,000	122,262	2169,150
1	0,000	122,312	2169,553
1	0,000	122,312	2170,056
1	0,000	122,362	2170,660
1	0,000	122,412	2171,063
1	0,000	122,412	2171,567
1	0,000	122,462	2172,070
1	0,000	122,512	2172,574
1	0,000	122,512	2173,077
1	0,000	122,562	2173,581
1	0,000	122,612	2174,084
1	0,000	122,612	2174,588
1	0,000	122,662	2175,092
1	0,000	122,712	2175,595
1	0,000	122,712	2176,099
1	0,000	122,763	2176,602
1	0,000	122,813	2177,106
1	0,000	122,813	2177,509
1	0,000	122,863	2178,113
1	0,000	122,913	2178,616
1	0,000	122,913	2179,120
1	0,000	122,963	2179,623
1	0,000	123,014	2180,026
1	0,000	123,014	2180,530
1	0,000	123,064	2181,033
1	0,000	123,114	2181,537
1	0,000	123,114	2182,040
1	0,000	123,164	2182,645
1	0,000	123,214	2183,148
1	0,000	123,214	2183,551
1	0,000	123,265	2184,055
1	0,000	123,315	2184,558
1	0,000	123,315	2185,062
1	0,000	123,365	2185,565
1	0,000	123,415	2186,169
1	0,000	123,415	2186,673
1	0,000	123,465	2187,177
1	0,000	123,515	2187,579
1	0,000	123,515	2188,083
1	0,000	123,566	2188,586
1	0,000	123,615	2189,090
1	0,000	123,615	2189,694
1	0,000	123,666	2190,097
1	0,000	123,715	2190,601
1	0,000	123,715	2191,104
1	0,000	123,766	2191,608
1	0,000	123,816	2192,212
1	0,000	123,816	2192,816
1	0,000	123,866	2193,521
1	0,000	123,916	2193,622
1	0,000	123,916	2194,125
1	0,000	123,966	2194,629
1	0,000	124,016	2195,132
1	0,000	124,016	2195,636
1	0,000	124,066	2196,140
1	0,000	124,116	2196,643
1	0,000	124,116	2197,247
1	0,000	124,167	2197,751
1	0,000	124,216	2198,254
1	0,000	124,216	2198,758
1	0,000	124,267	2199,261
1	0,000	124,317	2199,765
1	0,000	124,317	2200,369
1	0,000	124,367	2200,873
1	0,000	124,417	2201,376
1	0,000	124,417	2201,880
1	0,000	124,467	2202,383
1	0,000	124,517	2202,988
1	0,000	124,517	2203,391
1	0,000	124,568	2203,995
1	0,000	124,618	2204,599
1	0,000	124,618	2205,002
1	0,000	124,667	2205,505
1	0,000	124,718	2206,009
1	0,000	124,718	2206,613
1	0,000	124,768	2207,117
1	0,000	124,818	2207,721
1	0,000	124,818	2208,124
1	0,000	124,867	2208,627
1	0,000	124,918	2209,232
1	0,000	124,918	2209,735
1	0,000	124,968	2210,239
1	0,000	125,018	2210,742
1	0,000	125,018	2211,346
1	0,000	125,068	2211,850
1	0,000	125,118	2212,354
1	0,000	125,118	2212,958
1	0,000	125,168	2213,461
1	0,000	125,219	2213,965
1	0,000	125,219	2214,569
1	0,000	125,269	2215,073
1	0,000	125,318	2215,677
1	0,000	125,318	2216,080
1	0,000	125,369	2216,684
1	0,000	125,419	2217,187
1	0,000	125,419	2217,892
1	0,000	125,469	2218,497
1	0,000	125,520	2218,799
1	0,000	125,520	2219,504
1	0,000	125,570	2220,007
1	0,000	125,620	2220,612
1	0,000	125,620	2221,014
1	0,000	125,670	2221,518
1	0,000	125,720	2222,021
1	0,000	125,720	2222,726
1	0,000	125,771	2223,129
1	0,000	125,821	2223,834
1	0,000	125,821	2224,237
1	0,000	125,871	2224,942
1	0,000	125,922	2225,546
1	0,000	125,922	2225,949
1	0,000	125,972	2226,553
1	0,000	126,022	2227,057
1	0,000	126,022	2227,560
1	0,000	126,072	2228,165
1	0,000	126,122	2228,668
1	0,000	126,122	2229,272
1	0,000	126,173	2229,776
1	0,000	126,223	2230,280
1	0,000	126,223	2230,884
1	0,000	126,273	2231,387
1	0,000	126,323	2231,992
1	0,000	126,323	2232,596
1	0,000	126,372	2232,999
1	0,000	126,423	2233,603
1	0,000	126,423	2234,106
1	0,000	126,472	2234,711
1	0,000	126,472	2235,214
1	0,000	126,523	2235,718
1	0,000	126,572	2236,322
1	0,000	126,572	2236,826
1	0,000	126,623	2237,430
1	0,000	126,673	2237,933
1	0,000	126,673	2238,437
1	0,000	126,723	2239,041
1	0,000	126,774	2239,645
1	0,000	126,774	2240,250
1	0,000	126,824	2240,753
1	0,000	126,874	2241,357
1	0,000	126,874	2241,760
1	0,000	126,924	2242,465
1	0,000	126,975	2242,163
1	0,000	126,975	2243,472
1	0,000	127,025	2243,976
1	0,000	127,075	2244,580
1	0,000	127,075	2245,084
1	0,000	127,125	2245,789
1	0,000	127,175	2246,191
1	0,000	127,175	2246,796
1	0,000	127,225	2247,299
1	0,000	127,275	2247,903
1	0,000	127,275	2248,407
1	0,000	127,325	2248,911
1	0,000	127,375	2249,515
1	0,000	127,375	2250,018
1	0,000	127,426	2250,623
1	0,000	127,476	2251,227
1	0,000	127,476	2251,730
1	0,000	127,526	2252,335
1	0,000	127,577	2252,838
1	0,000	127,577	2253,342
1	0,000	127,627	2253,946
1	0,000	127,678	2254,550
1	0,000	127,678	2254,953
1	0,000	127,727	2255,658
1	0,000	127,778	2256,161
1	0,000	127,778	2256,766
1	0,000	127,828	2257,269
1	0,000	127,878	2257,773
1	0,000	127,878	2258,377
1	0,000	127,928	2258,881
1	0,000	127,980	2259,485
1	0,000	127,980	2259,988
1	0,000	128,030	2260,593
1	0,000	128,080	2261,096
1	0,000	128,080	2261,700
1	0,000	128,129	2262,305
1	0,000	128,180	2262,909
1	0,000	128,180	2263,412
1	0,000	128,230	2263,916
1	0,000	128,280	2264,520
1	0,000	128,280	2265,125
1	0,000	128,330	2265,628
1	0,000	128,380	2266,232
1	0,000	128,380	2266,736
1	0,000	128,429	2267,340
1	0,000	128,479	2267,844
1	0,000	128,479	2268,448
1	0,000	128,530	2269,052
1	0,000	128,580	2269,656
1	0,000	128,580	2270,160
1	0,000	128,630	2270,663
1	0,000	128,679	2271,368
1	0,000	128,679	2271,872
1	0,000	128,730	2272,476
1	0,000	128,779	2273,080
1	0,000	128,779	2273,584
1	0,000	128,830	2274,188
1	0,000	128,880	2274,792
1	0,000	128,880	2275,296
1	0,000	128,929	2275,900
1	0,000	128,979	2276,505
1	0,000	128,979	2277,109
1	0,000	129,030	2277,612
1	0,000	129,080	2278,217
1	0,000	129,080	2278,821
1	0,000	129,130	2279,425
1	0,000	129,180	2280,130
1	0,000	129,180	2280,734
1	0,000	129,229	2281,339
1	0,000	129,280	2281,943
1	0,000	129,280	2282,547
1	0,000	129,329	2282,950
1	0,000	129,380	2283,453
1	0,000	129,380	2284,058
1	0,000	129,430	2284,662
1	0,000	129,480	2285,266
1	0,000	129,480	2285,870
1	0,000	129,531	2286,374
1	0,000	129,581	2286,978
1	0,000	129,581	2287,582
1	0,000	129,631	2288,287
1	0,000	129,681	2288,791
1	0,000	129,681	2289,496
1	0,000	129,731	2289,999
1	0,000	129,781	2290,604
1	0,000	129,781	2291,208
1	0,000	129,831	2291,812
1	0,000	129,881	2292,316
1	0,000	129,881	2292,920
1	0,000	129,931	2293,524
1	0,000	129,981	2294,028
1	0,000	129,981	2294,632
1	0,000	130,032	2295,236
1	0,000	130,082	2295,740
1	0,000	130,082	2296,445
1	0,000	130,132	2297,049
1	0,000	130,182	2297,552
1	0,000	130,182	2298,157
1	0,000	130,232	2298,761
1	0,000	130,283	2299,365
1	0,000	130,283	2299,969
1	0,000	130,333	2300,473
1	0,000	130,383	2301,077
1	0,000	130,383	2301,682
1	0,000	130,433	2302,185
1	0,000	130,484	2302,789
1	0,000	130,484	2303,394
1	0,000	130,533	2303,998
1	0,000	130,584	2304,602
1	0,000	130,584	2305,206
1	0,000	130,634	2305,811
1	0,000	130,684	2306,415
1	0,000	130,684	2307,019
1	0,000	130,734	2307,623
1	0,000	130,785	2308,228
1	0,000	130,785	2308,832
1	0,000	130,834	2309,436
1	0,000	130,884	2309,940
1	0,000	130,884	2310,645
1	0,000	130,935	2311,249
1	0,000	130,985	2311,853
1	0,000	130,985	2312,457
1	0,000	131,035	2313,062
1	0,000	131,085	2313,666
1	0,000	131,085	2314,371
1	0,000	131,135	2314,874
1	0,000	131,185	2315,479
1	0,000	131,185	2316,083
1	0,000	131,235	2316,788
1	0,000	131,285	2317,291
1	0,000	131,285	2317,896
1	0,000	131,335	2318,600
1	0,000	131,385	2319,003
1	0,000	131,385	2319,809
1	0,000	131,435	2320,312
1	0,000	131,485	2320,917
1	0,000	131,485	2321,521
1	0,000	131,535	2322,125
1	0,000	131,585	2322,729
1	0,000	131,585	2323,434
1	0,000	131,636	2324,039
1	0,000	131,686	2324,643
1	0,000	131,686	2325,247
1	0,000	131,735	2325,851
1	0,000	131,786	2326,456
1	0,000	131,786	2327,060
1	0,000	131,836	2327,664
1	0,000	131,887	2328,268
1	0,000	131,887	2328,873
1	0,000	131,936	2329,477
1	0,000	131,986	2330,081
1	0,000	131,986	2330,685
1	0,000	132,037	2331,290
1	0,000	132,087	2331,894
1	0,000	132,087	2332,498
1	0,000	132,137	2333,102
1	0,000	132,137	2333,908
1	0,000	132,188	2334,412
1	0,000	132,237	2334,915
1	0,000	132,237	2335,721
1	0,000	132,288	2336,224
1	0,000	132,338	2336,829
1	0,000	132,338	2337,433
1	0,000	132,388	2338,037
1	0,000	132,438	2338,641
1	0,000	132,438	2339,246
1	0,000	132,489	2339,850
1	0,000	132,538	2340,454
1	0,000	132,538	2341,058
1	0,000	132,589	2341,763
1	0,000	132,639	2342,267
1	0,000	132,639	2342,972
1	0,000	132,690	2343,576
1	0,000	132,740	2344,080
1	0,000	132,740	2344,785
1	0,000	132,790	2345,389
1	0,000	132,840	2345,993
1	0,000	132,840	2346,698
1	0,000	132,890	2347,302
1	0,000	132,940	2347,906
1	0,000	132,940	2348,511
1	0,000	132,991	2349,115
1	0,000	133,041	2349,820
1	0,000	133,041	2350,424
1	0,000	133,091	2350,928
1	0,000	133,142	2351,633
1	0,000	133,142	2352,237
1	0,000	133,192	2352,841
1	0,000	133,242	2353,445
1	0,000	133,242	2354,150
1	0,000	133,292	2354,755
1	0,000	133,343	2355,359
1	0,000	133,343	2356,064
1	0,000	133,392	2356,668
1	0,000	133,442	2357,272
1	0,000	133,442	2358,078
1	0,000	133,493	2358,481
1	0,000	133,544	2359,186
1	0,000	133,544	2359,991
1	0,000	133,594	2360,394
1	0,000	133,644	2361,099
1	0,000	133,644	2361,603
1	0,000	133,694	2362,207
1	0,000	133,744	2362,811
1	0,000	133,744	2363,416
1	0,000	133,794	2364,020
1	0,000	133,844	2364,926
1	0,000	133,844	2365,329
1	0,000	133,894	2366,034
1	0,000	133,944	2366,739
1	0,000	133,944	2367,444
1	0,000	133,994	2367,947
1	0,000	134,045	2368,451
1	0,000	134,045	2369,156
1	0,000	134,095	2369,760
1	0,000	134,146	2370,364
1	0,000	134,146	2371,069
1	0,000	134,196	2371,674
1	0,000	134,246	2372,278
1	0,000	134,246	2372,983
1	0,000	134,296	2373,587
1	0,000	134,346	2374,191
1	0,000	134,346	2374,796
1	0,000	134,396	2375,400
1	0,000	134,446	2376,105
1	0,000	134,446	2376,709
1	0,000	134,497	2377,414
1	0,000	134,547	2378,119
1	0,000	134,547	2378,622
1	0,000	134,597	2379,327
1	0,000	134,648	2380,032
1	0,000	134,648	2380,637
1	0,000	134,697	2381,241
1	0,000	134,747	2382,047
1	0,000	134,747	2382,449
1	0,000	134,798	2383,255
1	0,000	134,848	2384,262
1	0,000	134,848	2384,665
1	0,000	134,898	2385,068
1	0,000	134,948	2385,873
1	0,000	134,948	2386,478
1	0,000	134,998	2387,585
1	0,000	135,049	2387,888
1	0,000	135,049	2388,693
1	0,000	135,099	2389,096
1	0,000	135,149	2389,700
1	0,000	135,149	2390,405
1	0,000	135,200	2390,909
1	0,000	135,250	2391,714
1	0,000	135,250	2392,319
1	0,000	135,300	2393,024
1	0,000	135,350	2393,628
1	0,000	135,350	2394,333
1	0,000	135,400	2395,038
1	0,000	135,450	2395,642
1	0,000	135,450	2396,347
1	0,000	135,499	2396,750
1	0,000	135,550	2397,556
1	0,000	135,550	2398,160
1	0,000	135,600	2398,865
1	0,000	135,650	2399,469
1	0,000	135,650	2400,073
1	0,000	135,701	2400,778
1	0,000	135,751	2401,282
1	0,000	135,751	2401,987
1	0,000	135,801	2402,692
1	0,000	135,851	2403,296
1	0,000	135,851	2404,001
1	0,000	135,902	2404,706
1	0,000	135,951	2405,310
1	0,000	135,951	2406,015
1	0,000	136,001	2406,619
1	0,000	136,001	2407,425
1	0,000	136,052	2407,928
1	0,000	136,102	2408,533
1	0,000	136,102	2409,238
1	0,000	136,152	2409,943
1	0,000	136,202	2410,547
1	0,000	136,202	2411,050
1	0,000	136,252	2411,856
1	0,000	136,302	2412,561
1	0,000	136,302	2413,266
1	0,000	136,352	2413,870
1	0,000	136,402	2414,575
1	0,000	136,452	2415,179
1	0,000	136,452	2415,784
1	0,000	136,502	2416,489
1	0,000	136,502	2417,194
1	0,000	136,552	2417,899
1	0,000	136,602	2418,503
1	0,000	136,602	2419,107
1	0,000	136,652	2419,913
1	0,000	136,703	2420,416
1	0,000	136,703	2421,121
1	0,000	136,753	2421,927
1	0,000	136,803	2422,430
1	0,000	136,803	2423,035
1	0,000	136,853	2423,639
1	0,000	136,903	2424,344
1	0,000	136,903	2425,049
1	0,000	136,953	2425,552
1	0,000	137,003	2426,358
1	0,000	137,003	2426,962
1	0,000	137,053	2427,768
1	0,000	137,103	2428,473
1	0,000	137,103	2429,077
1	0,000	137,154	2429,681
1	0,000	137,205	2430,286
1	0,000	137,205	2430,991
1	0,000	137,255	2431,796
1	0,000	137,304	2432,199
1	0,000	137,304	2432,904
1	0,000	137,355	2433,609
1	0,000	137,405	2433,911
1	0,000	137,405	2435,019
1	0,000	137,455	2435,522
1	0,000	137,505	2436,127
1	0,000	137,505	2436,932
1	0,000	137,555	2437,335
1	0,000	137,605	2438,242
1	0,000	137,605	2438,846
1	0,000	137,655	2439,651
1	0,000	137,706	2440,155
1	0,000	137,706	2440,759
1	0,000	137,755	2441,565
1	0,000	137,805	2442,270
1	0,000	137,805	2442,975
1	0,000	137,856	2443,579
1	0,000	137,906	2444,284
1	0,000	137,906	2444,888
1	0,000	137,956	2445,694
1	0,000	138,006	2446,198
1	0,000	138,006	2447,104
1	0,000	138,056	2447,708
1	0,000	138,106	2448,312
1	0,000	138,106	2448,917
1	0,000	138,156	2449,622
1	0,000	138,207	2450,226
1	0,000	138,207	2450,931
1	0,000	138,256	2451,938
1	0,000	138,307	2452,341
1	0,000	138,307	2452,945
1	0,000	138,357	2453,751
1	0,000	138,407	2454,355
1	0,000	138,407	2455,161
1	0,000	138,457	2455,765
1	0,000	138,508	2456,470
1	0,000	138,508	2457,175
1	0,000	138,558	2457,880
1	0,000	138,607	2458,585
1	0,000	138,607	2459,290
1	0,000	138,658	2459,793
1	0,000	138,708	2460,599
1	0,000	138,708	2461,203
1	0,000	138,758	2461,807
1	0,000	138,808	2462,411
1	0,000	138,808	2463,217
1	0,000	138,859	2463,922
1	0,000	138,909	2464,526
1	0,000	138,909	2465,231
1	0,000	138,960	2465,936
1	0,000	139,010	2466,641
1	0,000	139,010	2467,346
1	0,000	139,060	2467,950
1	0,000	139,110	2468,655
1	0,000	139,110	2469,260
1	0,000	139,160	2469,965
1	0,000	139,211	2470,670
1	0,000	139,211	2471,375
1	0,000	139,261	2471,979
1	0,000	139,311	2472,482
1	0,000	139,311	2473,288
1	0,000	139,362	2473,993
1	0,000	139,412	2474,799
1	0,000	139,412	2475,302
1	0,000	139,462	2476,108
1	0,000	139,512	2476,813
1	0,000	139,512	2477,518
1	0,000	139,561	2478,122
1	0,000	139,612	2479,028
1	0,000	139,612	2479,633
1	0,000	139,662	2480,338
1	0,000	139,712	2480,841
1	0,000	139,712	2481,546
1	0,000	139,762	2482,251
1	0,000	139,812	2482,956
1	0,000	139,812	2483,762
1	0,000	139,862	2484,265
1	0,000	139,909	2484,769
1	0,000	139,909	2485,172
1	0,000	139,946	2485,574
1	0,000	139,974	2486,078
1	0,000	139,974	2485,977
1	0,000	139,992	2485,977
1	0,000	139,999	2486,078
1	0,000	139,999	2486,078
