Col.n° Rot(deg) Lin(mm) CHR(um)
1	0,000	80,081	1625,729
1	0,000	80,081	1628,751
1	0,000	80,126	1624,219
1	0,000	80,176	1626,837
1	0,000	80,176	1625,729
1	0,000	80,226	1626,736
1	0,000	80,277	1631,470
1	0,000	80,277	1627,844
1	0,000	80,326	1629,858
1	0,000	80,376	1629,254
1	0,000	80,376	1627,341
1	0,000	80,427	1630,261
1	0,000	80,477	1629,758
1	0,000	80,477	1628,146
1	0,000	80,527	1627,240
1	0,000	80,577	1630,261
1	0,000	80,577	1626,233
1	0,000	80,627	1627,341
1	0,000	80,677	1631,470
1	0,000	80,677	1624,622
1	0,000	80,727	1626,233
1	0,000	80,777	1628,146
1	0,000	80,777	1628,146
1	0,000	80,828	1630,161
1	0,000	80,878	1629,959
1	0,000	80,878	1628,448
1	0,000	80,928	1631,168
1	0,000	80,978	1630,060
1	0,000	80,978	1633,182
1	0,000	81,028	1630,865
1	0,000	81,078	1630,865
1	0,000	81,078	1630,362
1	0,000	81,129	1629,456
1	0,000	81,179	1633,484
1	0,000	81,179	1629,556
1	0,000	81,228	1630,060
1	0,000	81,279	1630,966
1	0,000	81,279	1629,355
1	0,000	81,329	1630,664
1	0,000	81,379	1630,865
1	0,000	81,379	1634,894
1	0,000	81,430	1631,268
1	0,000	81,480	1632,477
1	0,000	81,480	1632,175
1	0,000	81,530	1631,873
1	0,000	81,580	1633,786
1	0,000	81,580	1630,765
1	0,000	81,630	1631,470
1	0,000	81,680	1631,973
1	0,000	81,680	1630,966
1	0,000	81,730	1632,779
1	0,000	81,780	1633,585
1	0,000	81,780	1632,175
1	0,000	81,831	1631,671
1	0,000	81,880	1632,175
1	0,000	81,880	1632,578
1	0,000	81,930	1632,275
1	0,000	81,981	1633,484
1	0,000	81,981	1632,980
1	0,000	82,031	1633,585
1	0,000	82,082	1635,901
1	0,000	82,082	1631,973
1	0,000	82,132	1632,980
1	0,000	82,182	1634,692
1	0,000	82,182	1633,282
1	0,000	82,233	1636,404
1	0,000	82,283	1634,088
1	0,000	82,283	1635,699
1	0,000	82,333	1634,189
1	0,000	82,384	1637,311
1	0,000	82,384	1636,102
1	0,000	82,434	1635,800
1	0,000	82,483	1636,002
1	0,000	82,483	1637,009
1	0,000	82,534	1636,203
1	0,000	82,584	1636,606
1	0,000	82,584	1635,297
1	0,000	82,634	1635,095
1	0,000	82,684	1637,714
1	0,000	82,684	1634,390
1	0,000	82,734	1637,009
1	0,000	82,785	1635,699
1	0,000	82,785	1636,304
1	0,000	82,835	1635,800
1	0,000	82,885	1636,002
1	0,000	82,885	1636,707
1	0,000	82,935	1639,224
1	0,000	82,985	1635,297
1	0,000	82,985	1638,419
1	0,000	83,035	1638,620
1	0,000	83,085	1637,814
1	0,000	83,085	1639,426
1	0,000	83,135	1638,519
1	0,000	83,185	1635,297
1	0,000	83,185	1637,814
1	0,000	83,236	1639,124
1	0,000	83,285	1638,821
1	0,000	83,285	1638,016
1	0,000	83,336	1640,030
1	0,000	83,336	1637,009
1	0,000	83,386	1638,116
1	0,000	83,436	1642,245
1	0,000	83,436	1637,210
1	0,000	83,487	1639,023
1	0,000	83,537	1638,116
1	0,000	83,537	1639,224
1	0,000	83,587	1638,419
1	0,000	83,637	1639,124
1	0,000	83,637	1640,131
1	0,000	83,687	1641,037
1	0,000	83,738	1641,037
1	0,000	83,738	1642,145
1	0,000	83,788	1641,238
1	0,000	83,838	1644,662
1	0,000	83,838	1639,526
1	0,000	83,887	1640,735
1	0,000	83,938	1642,950
1	0,000	83,938	1642,548
1	0,000	83,988	1640,735
1	0,000	84,038	1639,627
1	0,000	84,038	1641,238
1	0,000	84,088	1640,231
1	0,000	84,138	1641,541
1	0,000	84,138	1644,360
1	0,000	84,189	1639,124
1	0,000	84,238	1641,943
1	0,000	84,238	1643,353
1	0,000	84,289	1642,447
1	0,000	84,340	1642,950
1	0,000	84,340	1641,843
1	0,000	84,389	1644,360
1	0,000	84,440	1644,965
1	0,000	84,440	1642,245
1	0,000	84,490	1644,260
1	0,000	84,540	1642,245
1	0,000	84,540	1645,166
1	0,000	84,591	1645,972
1	0,000	84,641	1644,159
1	0,000	84,641	1646,375
1	0,000	84,690	1644,662
1	0,000	84,741	1647,482
1	0,000	84,741	1647,079
1	0,000	84,792	1643,655
1	0,000	84,842	1641,339
1	0,000	84,842	1643,051
1	0,000	84,892	1644,763
1	0,000	84,942	1646,274
1	0,000	84,942	1644,864
1	0,000	84,992	1645,166
1	0,000	85,042	1645,670
1	0,000	85,042	1644,058
1	0,000	85,092	1643,958
1	0,000	85,142	1646,173
1	0,000	85,142	1649,496
1	0,000	85,192	1646,274
1	0,000	85,242	1644,360
1	0,000	85,242	1645,972
1	0,000	85,292	1647,281
1	0,000	85,343	1648,087
1	0,000	85,343	1647,684
1	0,000	85,393	1647,684
1	0,000	85,443	1647,784
1	0,000	85,443	1649,799
1	0,000	85,492	1645,468
1	0,000	85,543	1648,691
1	0,000	85,543	1646,274
1	0,000	85,593	1649,094
1	0,000	85,643	1647,784
1	0,000	85,643	1648,993
1	0,000	85,693	1649,698
1	0,000	85,743	1648,892
1	0,000	85,743	1645,972
1	0,000	85,793	1647,382
1	0,000	85,843	1650,906
1	0,000	85,843	1647,986
1	0,000	85,894	1648,389
1	0,000	85,944	1649,799
1	0,000	85,944	1649,597
1	0,000	85,994	1648,389
1	0,000	86,045	1650,604
1	0,000	86,045	1651,611
1	0,000	86,094	1652,115
1	0,000	86,145	1649,496
1	0,000	86,145	1652,316
1	0,000	86,194	1651,108
1	0,000	86,245	1651,007
1	0,000	86,245	1650,806
1	0,000	86,294	1651,913
1	0,000	86,345	1653,122
1	0,000	86,345	1654,834
1	0,000	86,395	1653,021
1	0,000	86,445	1652,719
1	0,000	86,445	1654,532
1	0,000	86,496	1653,525
1	0,000	86,546	1653,726
1	0,000	86,546	1654,834
1	0,000	86,596	1653,323
1	0,000	86,647	1653,928
1	0,000	86,647	1653,726
1	0,000	86,696	1652,618
1	0,000	86,747	1651,611
1	0,000	86,747	1652,417
1	0,000	86,797	1653,122
1	0,000	86,847	1654,733
1	0,000	86,847	1654,733
1	0,000	86,897	1656,244
1	0,000	86,948	1657,150
1	0,000	86,948	1655,740
1	0,000	86,998	1655,942
1	0,000	87,048	1655,841
1	0,000	87,048	1656,747
1	0,000	87,099	1655,539
1	0,000	87,148	1657,050
1	0,000	87,148	1657,352
1	0,000	87,199	1655,438
1	0,000	87,249	1654,935
1	0,000	87,249	1656,546
1	0,000	87,299	1657,654
1	0,000	87,349	1657,755
1	0,000	87,349	1659,366
1	0,000	87,399	1657,050
1	0,000	87,449	1657,452
1	0,000	87,449	1658,560
1	0,000	87,500	1659,668
1	0,000	87,550	1659,668
1	0,000	87,550	1659,769
1	0,000	87,601	1658,862
1	0,000	87,651	1659,064
1	0,000	87,651	1660,172
1	0,000	87,701	1658,762
1	0,000	87,701	1660,272
1	0,000	87,751	1661,078
1	0,000	87,802	1661,279
1	0,000	87,802	1660,876
1	0,000	87,852	1660,373
1	0,000	87,902	1660,675
1	0,000	87,951	1661,078
1	0,000	87,951	1661,078
1	0,000	88,001	1661,380
1	0,000	88,001	1660,876
1	0,000	88,052	1661,884
1	0,000	88,102	1662,186
1	0,000	88,102	1662,286
1	0,000	88,152	1661,884
1	0,000	88,201	1662,186
1	0,000	88,201	1662,387
1	0,000	88,252	1662,589
1	0,000	88,303	1663,092
1	0,000	88,303	1663,092
1	0,000	88,353	1662,891
1	0,000	88,402	1662,790
1	0,000	88,402	1662,790
1	0,000	88,453	1662,790
1	0,000	88,503	1663,193
1	0,000	88,503	1663,495
1	0,000	88,552	1663,998
1	0,000	88,602	1664,301
1	0,000	88,602	1664,502
1	0,000	88,653	1664,703
1	0,000	88,702	1665,005
1	0,000	88,702	1664,804
1	0,000	88,753	1665,408
1	0,000	88,803	1665,509
1	0,000	88,803	1665,710
1	0,000	88,853	1665,811
1	0,000	88,904	1666,214
1	0,000	88,904	1666,617
1	0,000	88,953	1666,617
1	0,000	89,004	1666,818
1	0,000	89,004	1666,919
1	0,000	89,054	1667,020
1	0,000	89,104	1666,919
1	0,000	89,104	1667,322
1	0,000	89,154	1667,725
1	0,000	89,204	1667,825
1	0,000	89,204	1667,825
1	0,000	89,254	1668,228
1	0,000	89,305	1668,329
1	0,000	89,305	1668,631
1	0,000	89,355	1668,832
1	0,000	89,405	1669,034
1	0,000	89,405	1669,034
1	0,000	89,455	1669,638
1	0,000	89,506	1669,839
1	0,000	89,506	1669,839
1	0,000	89,556	1671,048
1	0,000	89,606	1670,746
1	0,000	89,606	1670,746
1	0,000	89,656	1670,544
1	0,000	89,706	1670,746
1	0,000	89,706	1671,249
1	0,000	89,757	1671,552
1	0,000	89,807	1671,350
1	0,000	89,807	1671,854
1	0,000	89,856	1671,954
1	0,000	89,907	1672,156
1	0,000	89,907	1672,458
1	0,000	89,957	1672,559
1	0,000	90,007	1672,760
1	0,000	90,007	1672,861
1	0,000	90,058	1673,163
1	0,000	90,108	1673,364
1	0,000	90,108	1675,278
1	0,000	90,158	1673,868
1	0,000	90,208	1673,868
1	0,000	90,208	1674,069
1	0,000	90,258	1674,271
1	0,000	90,309	1674,774
1	0,000	90,309	1674,976
1	0,000	90,358	1675,882
1	0,000	90,408	1676,385
1	0,000	90,408	1675,378
1	0,000	90,459	1675,781
1	0,000	90,508	1676,083
1	0,000	90,508	1676,285
1	0,000	90,559	1676,688
1	0,000	90,609	1676,688
1	0,000	90,609	1676,688
1	0,000	90,659	1676,788
1	0,000	90,709	1677,393
1	0,000	90,709	1677,896
1	0,000	90,759	1677,594
1	0,000	90,809	1677,695
1	0,000	90,809	1678,098
1	0,000	90,859	1678,098
1	0,000	90,910	1678,500
1	0,000	90,910	1678,802
1	0,000	90,960	1679,004
1	0,000	91,009	1678,601
1	0,000	91,009	1679,709
1	0,000	91,059	1679,810
1	0,000	91,110	1679,709
1	0,000	91,110	1680,112
1	0,000	91,159	1680,414
1	0,000	91,210	1680,414
1	0,000	91,210	1680,615
1	0,000	91,260	1681,018
1	0,000	91,310	1680,716
1	0,000	91,310	1681,320
1	0,000	91,360	1681,421
1	0,000	91,410	1681,723
1	0,000	91,410	1682,327
1	0,000	91,460	1682,327
1	0,000	91,510	1683,133
1	0,000	91,510	1682,932
1	0,000	91,561	1683,435
1	0,000	91,611	1683,939
1	0,000	91,611	1683,737
1	0,000	91,661	1684,341
1	0,000	91,711	1684,744
1	0,000	91,711	1684,543
1	0,000	91,761	1684,543
1	0,000	91,811	1684,946
1	0,000	91,811	1685,349
1	0,000	91,861	1685,651
1	0,000	91,911	1685,751
1	0,000	91,911	1686,053
1	0,000	91,961	1686,557
1	0,000	92,012	1686,456
1	0,000	92,012	1688,470
1	0,000	92,062	1687,161
1	0,000	92,112	1687,161
1	0,000	92,112	1687,262
1	0,000	92,162	1687,262
1	0,000	92,212	1688,370
1	0,000	92,212	1688,873
1	0,000	92,262	1689,981
1	0,000	92,313	1690,485
1	0,000	92,313	1689,780
1	0,000	92,363	1689,780
1	0,000	92,413	1689,679
1	0,000	92,413	1690,082
1	0,000	92,463	1689,578
1	0,000	92,514	1689,578
1	0,000	92,514	1690,082
1	0,000	92,564	1690,485
1	0,000	92,614	1691,089
1	0,000	92,614	1692,499
1	0,000	92,665	1693,103
1	0,000	92,715	1693,304
1	0,000	92,715	1692,599
1	0,000	92,764	1692,197
1	0,000	92,815	1692,297
1	0,000	92,815	1692,599
1	0,000	92,866	1693,405
1	0,000	92,866	1693,103
1	0,000	92,916	1693,607
1	0,000	92,966	1694,211
1	0,000	92,966	1694,412
1	0,000	93,016	1694,211
1	0,000	93,066	1694,412
1	0,000	93,066	1694,614
1	0,000	93,116	1694,916
1	0,000	93,166	1695,419
1	0,000	93,166	1695,319
1	0,000	93,216	1695,822
1	0,000	93,267	1696,225
1	0,000	93,267	1696,326
1	0,000	93,317	1696,225
1	0,000	93,367	1696,628
1	0,000	93,367	1697,635
1	0,000	93,417	1697,534
1	0,000	93,467	1697,333
1	0,000	93,467	1697,736
1	0,000	93,517	1697,736
1	0,000	93,567	1698,038
1	0,000	93,567	1698,239
1	0,000	93,617	1698,441
1	0,000	93,667	1698,843
1	0,000	93,667	1699,146
1	0,000	93,718	1699,649
1	0,000	93,768	1699,850
1	0,000	93,768	1699,951
1	0,000	93,818	1700,253
1	0,000	93,867	1700,555
1	0,000	93,867	1700,858
1	0,000	93,918	1700,958
1	0,000	93,968	1701,260
1	0,000	93,968	1702,167
1	0,000	94,018	1702,066
1	0,000	94,069	1703,476
1	0,000	94,069	1702,872
1	0,000	94,118	1702,972
1	0,000	94,169	1703,476
1	0,000	94,169	1703,375
1	0,000	94,218	1704,080
1	0,000	94,269	1703,879
1	0,000	94,269	1706,094
1	0,000	94,320	1704,785
1	0,000	94,370	1704,584
1	0,000	94,370	1706,296
1	0,000	94,420	1707,001
1	0,000	94,470	1705,994
1	0,000	94,470	1706,195
1	0,000	94,520	1705,994
1	0,000	94,570	1706,396
1	0,000	94,570	1706,699
1	0,000	94,620	1707,001
1	0,000	94,671	1707,202
1	0,000	94,671	1707,202
1	0,000	94,720	1707,504
1	0,000	94,771	1707,706
1	0,000	94,771	1707,907
1	0,000	94,820	1708,310
1	0,000	94,871	1708,511
1	0,000	94,871	1708,612
1	0,000	94,921	1709,216
1	0,000	94,972	1709,518
1	0,000	94,972	1709,619
1	0,000	95,022	1709,921
1	0,000	95,072	1710,223
1	0,000	95,072	1710,626
1	0,000	95,123	1710,828
1	0,000	95,173	1711,130
1	0,000	95,173	1711,331
1	0,000	95,223	1711,835
1	0,000	95,273	1711,331
1	0,000	95,273	1712,338
1	0,000	95,323	1712,439
1	0,000	95,374	1712,640
1	0,000	95,374	1713,345
1	0,000	95,424	1713,446
1	0,000	95,473	1713,950
1	0,000	95,473	1713,950
1	0,000	95,523	1714,352
1	0,000	95,574	1714,554
1	0,000	95,574	1714,856
1	0,000	95,624	1714,151
1	0,000	95,674	1714,453
1	0,000	95,674	1715,762
1	0,000	95,723	1715,964
1	0,000	95,774	1716,467
1	0,000	95,774	1716,870
1	0,000	95,824	1717,172
1	0,000	95,874	1717,374
1	0,000	95,874	1717,374
1	0,000	95,924	1717,575
1	0,000	95,975	1717,978
1	0,000	95,975	1718,481
1	0,000	96,025	1718,884
1	0,000	96,075	1719,186
1	0,000	96,075	1719,086
1	0,000	96,125	1719,589
1	0,000	96,174	1719,992
1	0,000	96,174	1720,093
1	0,000	96,225	1720,395
1	0,000	96,274	1720,898
1	0,000	96,274	1721,100
1	0,000	96,325	1721,301
1	0,000	96,375	1721,704
1	0,000	96,375	1721,906
1	0,000	96,425	1722,006
1	0,000	96,475	1722,510
1	0,000	96,475	1722,913
1	0,000	96,526	1723,315
1	0,000	96,576	1723,618
1	0,000	96,576	1723,920
1	0,000	96,626	1723,920
1	0,000	96,676	1724,222
1	0,000	96,676	1724,725
1	0,000	96,726	1725,027
1	0,000	96,776	1725,330
1	0,000	96,776	1725,833
1	0,000	96,827	1725,934
1	0,000	96,877	1726,337
1	0,000	96,877	1726,639
1	0,000	96,927	1726,840
1	0,000	96,977	1727,142
1	0,000	96,977	1727,344
1	0,000	97,027	1727,747
1	0,000	97,077	1728,250
1	0,000	97,077	1728,452
1	0,000	97,127	1728,452
1	0,000	97,177	1728,955
1	0,000	97,177	1729,257
1	0,000	97,227	1729,459
1	0,000	97,277	1729,861
1	0,000	97,277	1730,164
1	0,000	97,327	1730,768
1	0,000	97,377	1730,869
1	0,000	97,377	1730,667
1	0,000	97,427	1731,171
1	0,000	97,477	1731,976
1	0,000	97,477	1731,372
1	0,000	97,527	1731,976
1	0,000	97,577	1732,782
1	0,000	97,577	1732,782
1	0,000	97,628	1733,084
1	0,000	97,677	1733,286
1	0,000	97,677	1733,890
1	0,000	97,727	1734,192
1	0,000	97,778	1734,595
1	0,000	97,778	1734,796
1	0,000	97,828	1735,098
1	0,000	97,877	1735,199
1	0,000	97,877	1735,602
1	0,000	97,928	1737,112
1	0,000	97,978	1738,120
1	0,000	97,978	1738,422
1	0,000	98,028	1738,422
1	0,000	98,078	1738,623
1	0,000	98,078	1737,817
1	0,000	98,128	1737,817
1	0,000	98,178	1738,422
1	0,000	98,178	1738,724
1	0,000	98,228	1739,127
1	0,000	98,278	1739,328
1	0,000	98,278	1739,630
1	0,000	98,328	1739,832
1	0,000	98,378	1740,033
1	0,000	98,378	1740,335
1	0,000	98,429	1740,738
1	0,000	98,479	1740,939
1	0,000	98,479	1741,342
1	0,000	98,528	1742,047
1	0,000	98,578	1742,148
1	0,000	98,578	1742,450
1	0,000	98,628	1742,752
1	0,000	98,628	1743,054
1	0,000	98,678	1743,558
1	0,000	98,729	1743,759
1	0,000	98,778	1743,860
1	0,000	98,778	1743,860
1	0,000	98,829	1744,666
1	0,000	98,879	1744,968
1	0,000	98,879	1745,471
1	0,000	98,929	1745,572
1	0,000	98,929	1745,874
1	0,000	98,979	1746,176
1	0,000	99,029	1746,478
1	0,000	99,079	1747,385
1	0,000	99,079	1748,392
1	0,000	99,129	1748,895
1	0,000	99,129	1748,392
1	0,000	99,180	1747,989
1	0,000	99,230	1748,492
1	0,000	99,230	1749,097
1	0,000	99,280	1749,500
1	0,000	99,330	1750,104
1	0,000	99,330	1750,406
1	0,000	99,380	1750,406
1	0,000	99,430	1750,406
1	0,000	99,430	1750,809
1	0,000	99,481	1751,111
1	0,000	99,532	1751,413
1	0,000	99,532	1751,715
1	0,000	99,582	1752,420
1	0,000	99,631	1752,722
1	0,000	99,631	1753,226
1	0,000	99,681	1753,125
1	0,000	99,732	1753,528
1	0,000	99,732	1753,830
1	0,000	99,782	1754,031
1	0,000	99,832	1754,535
1	0,000	99,832	1754,535
1	0,000	99,882	1755,038
1	0,000	99,933	1755,643
1	0,000	99,933	1755,844
1	0,000	99,983	1755,945
1	0,000	100,033	1756,247
1	0,000	100,033	1756,750
1	0,000	100,082	1757,153
1	0,000	100,133	1757,455
1	0,000	100,133	1757,959
1	0,000	100,183	1758,160
1	0,000	100,233	1758,563
1	0,000	100,233	1758,966
1	0,000	100,284	1759,167
1	0,000	100,334	1759,470
1	0,000	100,334	1760,175
1	0,000	100,384	1759,973
1	0,000	100,434	1760,074
1	0,000	100,434	1760,678
1	0,000	100,484	1762,793
1	0,000	100,535	1761,383
1	0,000	100,535	1762,088
1	0,000	100,585	1762,692
1	0,000	100,635	1762,793
1	0,000	100,635	1763,095
1	0,000	100,685	1763,297
1	0,000	100,735	1763,397
1	0,000	100,735	1763,901
1	0,000	100,785	1764,001
1	0,000	100,835	1766,016
1	0,000	100,835	1765,009
1	0,000	100,885	1765,109
1	0,000	100,935	1765,311
1	0,000	100,935	1765,814
1	0,000	100,985	1765,915
1	0,000	101,035	1766,217
1	0,000	101,035	1767,426
1	0,000	101,086	1768,332
1	0,000	101,136	1767,728
1	0,000	101,136	1768,130
1	0,000	101,186	1768,735
1	0,000	101,237	1769,037
1	0,000	101,237	1769,339
1	0,000	101,287	1769,641
1	0,000	101,337	1769,843
1	0,000	101,337	1770,346
1	0,000	101,387	1770,749
1	0,000	101,438	1771,252
1	0,000	101,438	1771,353
1	0,000	101,487	1771,756
1	0,000	101,538	1771,957
1	0,000	101,538	1771,957
1	0,000	101,588	1772,562
1	0,000	101,638	1773,065
1	0,000	101,638	1773,367
1	0,000	101,687	1773,569
1	0,000	101,738	1773,972
1	0,000	101,738	1773,871
1	0,000	101,787	1774,979
1	0,000	101,837	1774,677
1	0,000	101,837	1775,180
1	0,000	101,887	1775,583
1	0,000	101,938	1776,187
1	0,000	101,938	1775,684
1	0,000	101,988	1776,993
1	0,000	102,038	1777,295
1	0,000	102,038	1778,000
1	0,000	102,088	1779,510
1	0,000	102,138	1779,208
1	0,000	102,138	1779,510
1	0,000	102,188	1779,208
1	0,000	102,238	1779,510
1	0,000	102,238	1780,417
1	0,000	102,288	1780,215
1	0,000	102,338	1780,518
1	0,000	102,338	1780,115
1	0,000	102,388	1781,021
1	0,000	102,438	1781,424
1	0,000	102,438	1782,230
1	0,000	102,488	1781,827
1	0,000	102,538	1783,640
1	0,000	102,538	1783,438
1	0,000	102,588	1785,251
1	0,000	102,638	1784,546
1	0,000	102,638	1785,049
1	0,000	102,688	1784,445
1	0,000	102,738	1784,546
1	0,000	102,738	1785,049
1	0,000	102,788	1785,352
1	0,000	102,839	1786,157
1	0,000	102,839	1786,560
1	0,000	102,889	1786,359
1	0,000	102,939	1786,862
1	0,000	102,939	1787,366
1	0,000	102,989	1787,466
1	0,000	103,039	1787,970
1	0,000	103,039	1788,574
1	0,000	103,089	1788,977
1	0,000	103,140	1789,279
1	0,000	103,140	1789,380
1	0,000	103,189	1789,682
1	0,000	103,240	1790,488
1	0,000	103,240	1790,689
1	0,000	103,289	1791,394
1	0,000	103,339	1791,696
1	0,000	103,339	1791,898
1	0,000	103,389	1792,200
1	0,000	103,440	1792,502
1	0,000	103,440	1792,804
1	0,000	103,490	1793,509
1	0,000	103,539	1794,012
1	0,000	103,539	1794,415
1	0,000	103,589	1794,617
1	0,000	103,640	1795,020
1	0,000	103,640	1795,523
1	0,000	103,690	1795,724
1	0,000	103,740	1796,329
1	0,000	103,740	1796,631
1	0,000	103,791	1796,832
1	0,000	103,840	1797,235
1	0,000	103,840	1797,638
1	0,000	103,891	1797,940
1	0,000	103,940	1798,242
1	0,000	103,940	1798,947
1	0,000	103,991	1799,249
1	0,000	104,040	1799,652
1	0,000	104,040	1799,451
1	0,000	104,091	1800,156
1	0,000	104,141	1800,760
1	0,000	104,141	1801,465
1	0,000	104,191	1802,774
1	0,000	104,242	1802,472
1	0,000	104,242	1802,975
1	0,000	104,293	1805,594
1	0,000	104,342	1803,580
1	0,000	104,342	1804,385
1	0,000	104,393	1803,680
1	0,000	104,442	1803,882
1	0,000	104,442	1804,184
1	0,000	104,493	1804,788
1	0,000	104,543	1805,392
1	0,000	104,543	1805,493
1	0,000	104,593	1805,795
1	0,000	104,593	1806,198
1	0,000	104,643	1806,702
1	0,000	104,693	1807,104
1	0,000	104,693	1807,507
1	0,000	104,744	1807,809
1	0,000	104,794	1808,212
1	0,000	104,794	1808,716
1	0,000	104,844	1809,421
1	0,000	104,894	1809,119
1	0,000	104,894	1809,723
1	0,000	104,944	1810,428
1	0,000	104,995	1810,831
1	0,000	104,995	1811,133
1	0,000	105,044	1811,536
1	0,000	105,095	1811,938
1	0,000	105,095	1812,442
1	0,000	105,145	1812,744
1	0,000	105,194	1813,248
1	0,000	105,194	1813,953
1	0,000	105,245	1814,053
1	0,000	105,295	1814,154
1	0,000	105,295	1815,060
1	0,000	105,345	1815,161
1	0,000	105,395	1815,463
1	0,000	105,395	1816,068
1	0,000	105,445	1816,370
1	0,000	105,495	1816,772
1	0,000	105,495	1816,974
1	0,000	105,545	1817,477
1	0,000	105,595	1818,182
1	0,000	105,595	1818,988
1	0,000	105,645	1819,189
1	0,000	105,695	1819,089
1	0,000	105,695	1820,197
1	0,000	105,746	1820,297
1	0,000	105,796	1820,901
1	0,000	105,796	1821,606
1	0,000	105,847	1821,707
1	0,000	105,897	1822,110
1	0,000	105,897	1822,513
1	0,000	105,947	1822,513
1	0,000	105,997	1823,016
1	0,000	105,997	1823,117
1	0,000	106,047	1824,225
1	0,000	106,098	1823,923
1	0,000	106,098	1824,728
1	0,000	106,147	1825,031
1	0,000	106,197	1825,232
1	0,000	106,197	1826,138
1	0,000	106,248	1826,440
1	0,000	106,298	1826,743
1	0,000	106,298	1827,246
1	0,000	106,348	1827,951
1	0,000	106,398	1828,857
1	0,000	106,398	1829,965
1	0,000	106,448	1829,059
1	0,000	106,499	1829,462
1	0,000	106,499	1830,167
1	0,000	106,549	1830,267
1	0,000	106,599	1830,670
1	0,000	106,599	1831,174
1	0,000	106,649	1831,274
1	0,000	106,699	1831,879
1	0,000	106,699	1832,483
1	0,000	106,749	1832,785
1	0,000	106,799	1833,087
1	0,000	106,799	1833,389
1	0,000	106,849	1833,691
1	0,000	106,900	1834,195
1	0,000	106,900	1834,799
1	0,000	106,950	1835,403
1	0,000	107,000	1836,108
1	0,000	107,000	1836,108
1	0,000	107,050	1836,713
1	0,000	107,100	1837,317
1	0,000	107,100	1837,619
1	0,000	107,150	1838,022
1	0,000	107,200	1838,324
1	0,000	107,200	1839,029
1	0,000	107,251	1839,532
1	0,000	107,301	1839,935
1	0,000	107,301	1840,439
1	0,000	107,351	1840,942
1	0,000	107,401	1841,345
1	0,000	107,401	1841,647
1	0,000	107,452	1842,151
1	0,000	107,502	1842,654
1	0,000	107,502	1843,158
1	0,000	107,552	1843,158
1	0,000	107,602	1843,762
1	0,000	107,602	1844,266
1	0,000	107,652	1845,071
1	0,000	107,702	1845,676
1	0,000	107,702	1846,179
1	0,000	107,753	1846,280
1	0,000	107,803	1846,884
1	0,000	107,803	1847,186
1	0,000	107,853	1847,388
1	0,000	107,903	1847,992
1	0,000	107,903	1848,294
1	0,000	107,953	1848,798
1	0,000	108,003	1849,402
1	0,000	108,003	1849,805
1	0,000	108,053	1850,208
1	0,000	108,104	1850,510
1	0,000	108,104	1851,114
1	0,000	108,154	1851,517
1	0,000	108,203	1851,920
1	0,000	108,203	1852,423
1	0,000	108,254	1853,027
1	0,000	108,303	1853,329
1	0,000	108,303	1855,746
1	0,000	108,354	1854,135
1	0,000	108,404	1854,639
1	0,000	108,404	1855,243
1	0,000	108,454	1855,646
1	0,000	108,504	1856,049
1	0,000	108,504	1856,653
1	0,000	108,554	1856,955
1	0,000	108,604	1857,559
1	0,000	108,604	1857,962
1	0,000	108,654	1858,667
1	0,000	108,704	1858,969
1	0,000	108,704	1859,271
1	0,000	108,754	1859,976
1	0,000	108,804	1859,976
1	0,000	108,804	1860,278
1	0,000	108,855	1860,883
1	0,000	108,905	1861,588
1	0,000	108,905	1861,890
1	0,000	108,955	1862,192
1	0,000	109,005	1862,997
1	0,000	109,005	1863,400
1	0,000	109,055	1864,206
1	0,000	109,105	1864,307
1	0,000	109,105	1864,810
1	0,000	109,156	1865,414
1	0,000	109,205	1866,522
1	0,000	109,205	1866,522
1	0,000	109,256	1867,630
1	0,000	109,306	1868,234
1	0,000	109,306	1868,234
1	0,000	109,355	1868,536
1	0,000	109,406	1868,536
1	0,000	109,406	1869,342
1	0,000	109,456	1869,644
1	0,000	109,506	1869,846
1	0,000	109,506	1870,450
1	0,000	109,556	1871,155
1	0,000	109,606	1871,960
1	0,000	109,606	1872,766
1	0,000	109,657	1873,572
1	0,000	109,657	1873,773
1	0,000	109,707	1873,874
1	0,000	109,757	1874,579
1	0,000	109,757	1874,780
1	0,000	109,807	1875,082
1	0,000	109,857	1875,687
1	0,000	109,857	1875,586
1	0,000	109,907	1876,694
1	0,000	109,958	1876,996
1	0,000	109,958	1877,701
1	0,000	110,008	1878,104
1	0,000	110,058	1878,809
1	0,000	110,058	1879,211
1	0,000	110,108	1879,715
1	0,000	110,158	1880,923
1	0,000	110,158	1880,118
1	0,000	110,208	1882,333
1	0,000	110,258	1881,125
1	0,000	110,258	1882,132
1	0,000	110,308	1881,326
1	0,000	110,359	1882,736
1	0,000	110,359	1881,024
1	0,000	110,409	1881,125
1	0,000	110,459	1884,146
1	0,000	110,459	1884,750
1	0,000	110,509	1885,254
1	0,000	110,559	1885,858
1	0,000	110,559	1886,362
1	0,000	110,609	1886,865
1	0,000	110,659	1887,268
1	0,000	110,659	1888,275
1	0,000	110,709	1888,678
1	0,000	110,760	1890,390
1	0,000	110,760	1890,289
1	0,000	110,810	1890,289
1	0,000	110,860	1890,692
1	0,000	110,860	1891,699
1	0,000	110,910	1891,901
1	0,000	110,960	1892,303
1	0,000	110,960	1892,404
1	0,000	111,010	1893,814
1	0,000	111,061	1894,217
1	0,000	111,061	1893,713
1	0,000	111,111	1894,318
1	0,000	111,161	1895,224
1	0,000	111,161	1896,332
1	0,000	111,210	1895,728
1	0,000	111,260	1896,835
1	0,000	111,260	1897,037
1	0,000	111,310	1898,547
1	0,000	111,360	1898,950
1	0,000	111,360	1898,648
1	0,000	111,411	1897,238
1	0,000	111,461	1899,554
1	0,000	111,461	1900,360
1	0,000	111,511	1899,655
1	0,000	111,561	1901,367
1	0,000	111,561	1901,669
1	0,000	111,611	1902,777
1	0,000	111,661	1903,281
1	0,000	111,661	1903,079
1	0,000	111,711	1904,187
1	0,000	111,761	1902,072
1	0,000	111,761	1905,496
1	0,000	111,811	1906,100
1	0,000	111,861	1906,503
1	0,000	111,861	1906,604
1	0,000	111,911	1907,410
1	0,000	111,962	1908,115
1	0,000	111,962	1908,316
1	0,000	112,011	1909,222
1	0,000	112,062	1909,827
1	0,000	112,062	1910,028
1	0,000	112,112	1910,632
1	0,000	112,162	1911,337
1	0,000	112,162	1911,740
1	0,000	112,212	1911,539
1	0,000	112,262	1911,942
1	0,000	112,262	1912,244
1	0,000	112,313	1912,646
1	0,000	112,363	1913,049
1	0,000	112,363	1913,452
1	0,000	112,413	1914,459
1	0,000	112,463	1914,963
1	0,000	112,463	1918,488
1	0,000	112,514	1915,668
1	0,000	112,564	1916,675
1	0,000	112,564	1916,977
1	0,000	112,614	1917,480
1	0,000	112,664	1917,984
1	0,000	112,664	1919,897
1	0,000	112,714	1918,991
1	0,000	112,765	1919,293
1	0,000	112,765	1919,897
1	0,000	112,814	1920,502
1	0,000	112,865	1921,509
1	0,000	112,865	1923,624
1	0,000	112,915	1922,314
1	0,000	112,964	1922,919
1	0,000	112,964	1923,825
1	0,000	113,015	1924,026
1	0,000	113,064	1924,530
1	0,000	113,064	1925,235
1	0,000	113,115	1927,753
1	0,000	113,165	1927,551
1	0,000	113,165	1925,739
1	0,000	113,216	1926,846
1	0,000	113,265	1927,652
1	0,000	113,265	1928,156
1	0,000	113,315	1929,062
1	0,000	113,366	1929,565
1	0,000	113,366	1929,868
1	0,000	113,416	1929,968
1	0,000	113,466	1930,472
1	0,000	113,466	1933,292
1	0,000	113,516	1933,493
1	0,000	113,566	1932,486
1	0,000	113,566	1933,392
1	0,000	113,616	1934,198
1	0,000	113,666	1934,802
1	0,000	113,666	1935,608
1	0,000	113,717	1935,608
1	0,000	113,766	1935,608
1	0,000	113,766	1936,816
1	0,000	113,817	1937,219
1	0,000	113,867	1937,421
1	0,000	113,867	1938,025
1	0,000	113,917	1938,327
1	0,000	113,966	1939,636
1	0,000	113,966	1940,140
1	0,000	114,017	1942,456
1	0,000	114,067	1940,744
1	0,000	114,067	1941,046
1	0,000	114,117	1939,938
1	0,000	114,168	1941,550
1	0,000	114,168	1943,161
1	0,000	114,217	1943,765
1	0,000	114,267	1942,355
1	0,000	114,267	1944,370
1	0,000	114,318	1946,384
1	0,000	114,368	1944,168
1	0,000	114,368	1945,175
1	0,000	114,418	1947,290
1	0,000	114,468	1947,089
1	0,000	114,468	1947,290
1	0,000	114,518	1947,995
1	0,000	114,569	1947,995
1	0,000	114,569	1949,103
1	0,000	114,619	1947,794
1	0,000	114,669	1947,693
1	0,000	114,669	1952,023
1	0,000	114,719	1949,405
1	0,000	114,770	1950,916
1	0,000	114,770	1951,318
1	0,000	114,820	1953,131
1	0,000	114,870	1953,534
1	0,000	114,870	1953,635
1	0,000	114,920	1954,541
1	0,000	114,970	1955,347
1	0,000	114,970	1955,951
1	0,000	115,021	1955,548
1	0,000	115,070	1955,951
1	0,000	115,070	1956,454
1	0,000	115,121	1957,462
1	0,000	115,121	1959,476
1	0,000	115,171	1957,864
1	0,000	115,221	1958,066
1	0,000	115,271	1959,375
1	0,000	115,271	1960,181
1	0,000	115,322	1960,382
1	0,000	115,322	1959,879
1	0,000	115,372	1961,288
1	0,000	115,422	1961,591
1	0,000	115,422	1962,396
1	0,000	115,472	1963,101
1	0,000	115,523	1963,605
1	0,000	115,523	1963,403
1	0,000	115,573	1963,403
1	0,000	115,622	1963,705
1	0,000	115,622	1965,317
1	0,000	115,672	1966,022
1	0,000	115,722	1966,525
1	0,000	115,722	1967,331
1	0,000	115,772	1968,036
1	0,000	115,822	1966,928
1	0,000	115,822	1968,942
1	0,000	115,872	1969,345
1	0,000	115,922	1969,849
1	0,000	115,922	1970,453
1	0,000	115,973	1971,460
1	0,000	116,023	1971,561
1	0,000	116,023	1971,661
1	0,000	116,073	1974,582
1	0,000	116,123	1972,870
1	0,000	116,123	1974,884
1	0,000	116,173	1973,474
1	0,000	116,223	1974,280
1	0,000	116,223	1975,085
1	0,000	116,273	1975,790
1	0,000	116,324	1976,495
1	0,000	116,324	1976,898
1	0,000	116,374	1976,193
1	0,000	116,424	1977,200
1	0,000	116,424	1980,121
1	0,000	116,474	1980,624
1	0,000	116,525	1976,294
1	0,000	116,525	1979,416
1	0,000	116,575	1980,524
1	0,000	116,625	1982,034
1	0,000	116,625	1979,114
1	0,000	116,675	1982,538
1	0,000	116,725	1982,840
1	0,000	116,725	1983,545
1	0,000	116,776	1982,840
1	0,000	116,827	1985,257
1	0,000	116,827	1984,250
1	0,000	116,877	1985,458
1	0,000	116,928	1985,861
1	0,000	116,928	1985,660
1	0,000	116,978	1987,271
1	0,000	117,028	1987,976
1	0,000	117,028	1987,271
1	0,000	117,078	1988,379
1	0,000	117,129	1988,681
1	0,000	117,129	1989,285
1	0,000	117,179	1990,393
1	0,000	117,229	1991,098
1	0,000	117,229	1991,098
1	0,000	117,280	1991,702
1	0,000	117,330	1992,609
1	0,000	117,330	1993,213
1	0,000	117,380	1991,702
1	0,000	117,430	1994,119
1	0,000	117,430	1995,026
1	0,000	117,479	1995,026
1	0,000	117,530	1997,141
1	0,000	117,530	1996,234
1	0,000	117,580	1996,033
1	0,000	117,630	1997,443
1	0,000	117,630	1997,845
1	0,000	117,680	1998,148
1	0,000	117,731	1998,853
1	0,000	117,731	1999,860
1	0,000	117,781	2000,665
1	0,000	117,831	2000,464
1	0,000	117,831	2000,967
1	0,000	117,881	2003,586
1	0,000	117,932	2001,874
1	0,000	117,932	2002,176
1	0,000	117,982	2003,284
1	0,000	118,032	2004,089
1	0,000	118,032	2003,687
1	0,000	118,083	2002,881
1	0,000	118,133	2004,895
1	0,000	118,133	2005,801
1	0,000	118,183	2007,614
1	0,000	118,233	2007,715
1	0,000	118,233	2006,204
1	0,000	118,284	2008,319
1	0,000	118,334	2008,319
1	0,000	118,334	2009,225
1	0,000	118,384	2009,830
1	0,000	118,434	2010,736
1	0,000	118,434	2009,830
1	0,000	118,485	2011,240
1	0,000	118,535	2010,736
1	0,000	118,535	2009,830
1	0,000	118,586	2011,743
1	0,000	118,586	2013,254
1	0,000	118,636	2012,750
1	0,000	118,685	2014,059
1	0,000	118,685	2015,369
1	0,000	118,736	2015,671
1	0,000	118,786	2015,771
1	0,000	118,786	2016,980
1	0,000	118,836	2017,484
1	0,000	118,886	2017,685
1	0,000	118,886	2019,397
1	0,000	118,936	2018,289
1	0,000	118,987	2019,196
1	0,000	118,987	2019,699
1	0,000	119,036	2022,217
1	0,000	119,087	2022,015
1	0,000	119,087	2021,310
1	0,000	119,136	2021,915
1	0,000	119,187	2022,519
1	0,000	119,187	2023,123
1	0,000	119,237	2024,030
1	0,000	119,287	2024,231
1	0,000	119,287	2024,734
1	0,000	119,337	2025,339
1	0,000	119,387	2025,842
1	0,000	119,387	2026,648
1	0,000	119,437	2026,849
1	0,000	119,488	2027,454
1	0,000	119,488	2027,252
1	0,000	119,538	2028,461
1	0,000	119,588	2029,367
1	0,000	119,588	2029,770
1	0,000	119,638	2030,072
1	0,000	119,688	2032,791
1	0,000	119,688	2031,381
1	0,000	119,738	2032,690
1	0,000	119,788	2032,288
1	0,000	119,788	2032,791
1	0,000	119,838	2034,302
1	0,000	119,889	2034,402
1	0,000	119,889	2036,014
1	0,000	119,939	2036,316
1	0,000	119,989	2037,122
1	0,000	119,989	2036,115
1	0,000	120,039	2036,819
1	0,000	120,089	2038,229
1	0,000	120,089	2038,129
1	0,000	120,139	2041,553
1	0,000	120,189	2039,438
1	0,000	120,189	2039,438
1	0,000	120,239	2042,459
1	0,000	120,289	2038,431
1	0,000	120,289	2041,452
1	0,000	120,339	2041,553
1	0,000	120,390	2042,358
1	0,000	120,390	2042,459
1	0,000	120,440	2043,567
1	0,000	120,490	2043,768
1	0,000	120,490	2043,567
1	0,000	120,540	2046,387
1	0,000	120,591	2044,675
1	0,000	120,591	2043,567
1	0,000	120,641	2047,293
1	0,000	120,691	2048,099
1	0,000	120,691	2048,401
1	0,000	120,741	2045,480
1	0,000	120,791	2048,602
1	0,000	120,791	2050,415
1	0,000	120,842	2050,818
1	0,000	120,892	2051,624
1	0,000	120,892	2051,221
1	0,000	120,942	2052,832
1	0,000	120,992	2053,134
1	0,000	120,992	2054,343
1	0,000	121,042	2054,443
1	0,000	121,093	2054,947
1	0,000	121,093	2055,148
1	0,000	121,143	2053,738
1	0,000	121,192	2055,954
1	0,000	121,192	2056,155
1	0,000	121,243	2056,055
1	0,000	121,293	2057,867
1	0,000	121,293	2058,069
1	0,000	121,344	2058,371
1	0,000	121,393	2058,875
1	0,000	121,393	2057,968
1	0,000	121,443	2060,385
1	0,000	121,494	2061,292
1	0,000	121,494	2062,500
1	0,000	121,544	2061,594
1	0,000	121,594	2063,004
1	0,000	121,594	2063,104
1	0,000	121,644	2063,708
1	0,000	121,694	2064,514
1	0,000	121,694	2064,615
1	0,000	121,745	2066,730
1	0,000	121,795	2065,823
1	0,000	121,795	2067,435
1	0,000	121,845	2066,226
1	0,000	121,895	2068,341
1	0,000	121,895	2070,355
1	0,000	121,946	2071,362
1	0,000	121,996	2070,053
1	0,000	121,996	2071,664
1	0,000	122,046	2072,369
1	0,000	122,096	2070,154
1	0,000	122,096	2072,772
1	0,000	122,145	2073,175
1	0,000	122,196	2070,657
1	0,000	122,196	2072,873
1	0,000	122,245	2075,894
1	0,000	122,296	2073,679
1	0,000	122,296	2074,988
1	0,000	122,346	2076,096
1	0,000	122,397	2077,203
1	0,000	122,397	2077,002
1	0,000	122,446	2075,391
1	0,000	122,497	2078,815
1	0,000	122,497	2078,412
1	0,000	122,547	2079,520
1	0,000	122,597	2080,930
1	0,000	122,597	2079,520
1	0,000	122,648	2080,930
1	0,000	122,697	2081,534
1	0,000	122,697	2081,635
1	0,000	122,747	2081,332
1	0,000	122,798	2083,246
1	0,000	122,798	2083,749
1	0,000	122,849	2084,354
1	0,000	122,898	2084,958
1	0,000	122,898	2085,663
1	0,000	122,948	2085,361
1	0,000	122,998	2086,368
1	0,000	122,998	2087,476
1	0,000	123,049	2088,281
1	0,000	123,099	2089,590
1	0,000	123,099	2091,202
1	0,000	123,149	2090,799
1	0,000	123,198	2092,007
1	0,000	123,198	2092,612
1	0,000	123,249	2093,015
1	0,000	123,300	2091,403
1	0,000	123,300	2092,712
1	0,000	123,349	2093,417
1	0,000	123,400	2094,424
1	0,000	123,400	2094,525
1	0,000	123,450	2095,432
1	0,000	123,450	2095,834
1	0,000	123,501	2097,043
1	0,000	123,550	2097,949
1	0,000	123,600	2098,251
1	0,000	123,600	2098,251
1	0,000	123,651	2098,050
1	0,000	123,651	2099,762
1	0,000	123,700	2100,467
1	0,000	123,750	2100,970
1	0,000	123,750	2100,568
1	0,000	123,800	2101,373
1	0,000	123,850	2101,575
1	0,000	123,850	2102,985
1	0,000	123,901	2102,783
1	0,000	123,951	2104,395
1	0,000	123,951	2104,395
1	0,000	124,001	2104,294
1	0,000	124,051	2105,502
1	0,000	124,051	2106,812
1	0,000	124,101	2105,603
1	0,000	124,151	2107,617
1	0,000	124,151	2107,214
1	0,000	124,201	2111,243
1	0,000	124,251	2110,236
1	0,000	124,251	2110,941
1	0,000	124,301	2111,142
1	0,000	124,351	2111,545
1	0,000	124,351	2112,552
1	0,000	124,401	2111,948
1	0,000	124,452	2112,048
1	0,000	124,452	2112,854
1	0,000	124,502	2115,170
1	0,000	124,552	2112,955
1	0,000	124,552	2115,573
1	0,000	124,602	2115,070
1	0,000	124,652	2115,875
1	0,000	124,652	2116,983
1	0,000	124,702	2115,573
1	0,000	124,753	2116,882
1	0,000	124,753	2119,904
1	0,000	124,803	2118,796
1	0,000	124,852	2117,487
1	0,000	124,852	2119,601
1	0,000	124,903	2121,716
1	0,000	124,952	2122,522
1	0,000	124,952	2123,730
1	0,000	125,002	2123,529
1	0,000	125,052	2124,033
1	0,000	125,052	2122,925
1	0,000	125,102	2125,040
1	0,000	125,153	2125,745
1	0,000	125,153	2126,248
1	0,000	125,203	2127,054
1	0,000	125,253	2126,852
1	0,000	125,253	2128,766
1	0,000	125,303	2127,457
1	0,000	125,353	2128,867
1	0,000	125,353	2130,679
1	0,000	125,404	2129,068
1	0,000	125,454	2130,981
1	0,000	125,454	2130,276
1	0,000	125,504	2132,593
1	0,000	125,554	2129,572
1	0,000	125,554	2131,989
1	0,000	125,604	2135,413
1	0,000	125,654	2136,923
1	0,000	125,654	2134,204
1	0,000	125,704	2135,010
1	0,000	125,755	2136,923
1	0,000	125,755	2137,628
1	0,000	125,805	2138,434
1	0,000	125,855	2138,535
1	0,000	125,855	2139,139
1	0,000	125,905	2137,326
1	0,000	125,955	2139,240
1	0,000	125,955	2141,254
1	0,000	126,005	2141,354
1	0,000	126,055	2141,757
1	0,000	126,055	2142,160
1	0,000	126,105	2143,369
1	0,000	126,155	2145,181
1	0,000	126,155	2142,865
1	0,000	126,205	2145,282
1	0,000	126,256	2146,793
1	0,000	126,256	2147,195
1	0,000	126,306	2147,095
1	0,000	126,356	2146,490
1	0,000	126,356	2149,713
1	0,000	126,406	2150,720
1	0,000	126,457	2149,210
1	0,000	126,457	2150,418
1	0,000	126,507	2151,929
1	0,000	126,557	2151,324
1	0,000	126,557	2152,029
1	0,000	126,607	2152,634
1	0,000	126,657	2153,641
1	0,000	126,657	2154,144
1	0,000	126,708	2155,252
1	0,000	126,758	2155,453
1	0,000	126,758	2156,058
1	0,000	126,808	2156,561
1	0,000	126,858	2157,367
1	0,000	126,858	2157,468
1	0,000	126,908	2157,468
1	0,000	126,958	2159,079
1	0,000	126,958	2158,777
1	0,000	127,008	2159,683
1	0,000	127,058	2160,590
1	0,000	127,058	2161,899
1	0,000	127,109	2163,107
1	0,000	127,158	2163,510
1	0,000	127,158	2163,510
1	0,000	127,208	2164,719
1	0,000	127,258	2164,215
1	0,000	127,258	2166,129
1	0,000	127,308	2166,330
1	0,000	127,359	2166,632
1	0,000	127,359	2167,035
1	0,000	127,409	2167,740
1	0,000	127,459	2168,445
1	0,000	127,459	2169,452
1	0,000	127,509	2168,747
1	0,000	127,560	2168,848
1	0,000	127,560	2172,775
1	0,000	127,609	2171,768
1	0,000	127,660	2172,574
1	0,000	127,660	2171,466
1	0,000	127,709	2172,171
1	0,000	127,760	2175,192
1	0,000	127,760	2175,998
1	0,000	127,809	2174,084
1	0,000	127,860	2175,595
1	0,000	127,860	2176,401
1	0,000	127,909	2175,797
1	0,000	127,959	2177,005
1	0,000	127,959	2178,012
1	0,000	128,010	2179,724
1	0,000	128,060	2179,926
1	0,000	128,060	2180,429
1	0,000	128,110	2181,839
1	0,000	128,160	2182,343
1	0,000	128,160	2183,954
1	0,000	128,210	2183,652
1	0,000	128,260	2184,055
1	0,000	128,260	2184,357
1	0,000	128,310	2184,055
1	0,000	128,360	2185,767
1	0,000	128,360	2185,565
1	0,000	128,410	2185,867
1	0,000	128,461	2187,680
1	0,000	128,461	2188,788
1	0,000	128,510	2189,191
1	0,000	128,561	2190,198
1	0,000	128,561	2190,399
1	0,000	128,610	2191,205
1	0,000	128,661	2191,809
1	0,000	128,661	2192,212
1	0,000	128,711	2193,823
1	0,000	128,761	2194,226
1	0,000	128,761	2194,931
1	0,000	128,811	2194,830
1	0,000	128,861	2195,636
1	0,000	128,861	2197,046
1	0,000	128,912	2197,449
1	0,000	128,962	2198,355
1	0,000	128,962	2199,463
1	0,000	129,012	2197,952
1	0,000	129,063	2200,974
1	0,000	129,063	2199,261
1	0,000	129,113	2199,463
1	0,000	129,163	2200,873
1	0,000	129,163	2202,585
1	0,000	129,213	2203,088
1	0,000	129,263	2202,383
1	0,000	129,263	2202,182
1	0,000	129,313	2205,002
1	0,000	129,363	2206,210
1	0,000	129,363	2205,103
1	0,000	129,414	2206,815
1	0,000	129,464	2207,318
1	0,000	129,464	2208,023
1	0,000	129,514	2208,627
1	0,000	129,514	2208,224
1	0,000	129,565	2209,735
1	0,000	129,615	2210,239
1	0,000	129,615	2211,749
1	0,000	129,665	2211,749
1	0,000	129,715	2210,541
1	0,000	129,715	2213,361
1	0,000	129,765	2214,267
1	0,000	129,814	2214,972
1	0,000	129,814	2216,080
1	0,000	129,864	2217,691
1	0,000	129,916	2217,389
1	0,000	129,916	2217,792
1	0,000	129,966	2218,195
1	0,000	130,016	2218,396
1	0,000	130,016	2217,892
1	0,000	130,066	2220,309
1	0,000	130,116	2219,604
1	0,000	130,116	2221,518
1	0,000	130,166	2221,115
1	0,000	130,216	2222,827
1	0,000	130,216	2222,525
1	0,000	130,266	2222,525
1	0,000	130,317	2223,431
1	0,000	130,317	2224,136
1	0,000	130,366	2226,352
1	0,000	130,417	2226,755
1	0,000	130,417	2227,258
1	0,000	130,467	2227,258
1	0,000	130,517	2229,071
1	0,000	130,517	2229,172
1	0,000	130,568	2230,984
1	0,000	130,618	2232,193
1	0,000	130,618	2232,797
1	0,000	130,668	2232,394
1	0,000	130,718	2236,624
1	0,000	130,718	2236,624
1	0,000	130,768	2234,811
1	0,000	130,818	2235,416
1	0,000	130,818	2237,228
1	0,000	130,869	2236,523
1	0,000	130,919	2237,228
1	0,000	130,919	2237,933
1	0,000	130,969	2236,624
1	0,000	131,019	2238,940
1	0,000	131,019	2241,458
1	0,000	131,069	2239,645
1	0,000	131,119	2241,660
1	0,000	131,119	2239,948
1	0,000	131,170	2242,767
1	0,000	131,220	2242,062
1	0,000	131,220	2243,976
1	0,000	131,271	2244,781
1	0,000	131,321	2245,285
1	0,000	131,321	2245,990
1	0,000	131,371	2245,285
1	0,000	131,420	2246,292
1	0,000	131,420	2247,903
1	0,000	131,471	2249,112
1	0,000	131,521	2248,608
1	0,000	131,521	2250,119
1	0,000	131,571	2250,824
1	0,000	131,621	2251,328
1	0,000	131,621	2252,234
1	0,000	131,672	2253,342
1	0,000	131,722	2253,644
1	0,000	131,722	2254,147
1	0,000	131,772	2252,133
1	0,000	131,772	2254,550
1	0,000	131,823	2256,967
1	0,000	131,873	2254,953
1	0,000	131,923	2255,154
1	0,000	131,923	2255,457
1	0,000	131,973	2252,939
1	0,000	132,023	2257,974
1	0,000	132,023	2260,693
1	0,000	132,074	2261,499
1	0,000	132,124	2261,398
1	0,000	132,124	2262,003
1	0,000	132,175	2265,024
1	0,000	132,224	2264,923
1	0,000	132,224	2264,923
1	0,000	132,275	2266,031
1	0,000	132,325	2266,333
1	0,000	132,325	2264,822
1	0,000	132,375	2267,340
1	0,000	132,425	2268,549
1	0,000	132,425	2269,254
1	0,000	132,475	2269,757
1	0,000	132,525	2270,261
1	0,000	132,525	2262,808
1	0,000	132,575	2269,354
1	0,000	132,626	2271,872
1	0,000	132,626	2273,383
1	0,000	132,676	2274,088
1	0,000	132,726	2273,987
1	0,000	132,726	2275,397
1	0,000	132,776	2276,001
1	0,000	132,826	2276,907
1	0,000	132,826	2277,914
1	0,000	132,877	2278,418
1	0,000	132,927	2279,123
1	0,000	132,927	2279,727
1	0,000	132,977	2278,821
1	0,000	133,027	2280,936
1	0,000	133,027	2282,245
1	0,000	133,077	2284,360
1	0,000	133,128	2282,748
1	0,000	133,128	2284,561
1	0,000	133,178	2285,266
1	0,000	133,178	2285,568
1	0,000	133,229	2286,676
1	0,000	133,279	2285,870
1	0,000	133,279	2288,489
1	0,000	133,329	2288,589
1	0,000	133,379	2290,503
1	0,000	133,379	2289,798
1	0,000	133,429	2290,503
1	0,000	133,479	2291,208
1	0,000	133,479	2293,726
1	0,000	133,529	2292,416
1	0,000	133,580	2293,726
1	0,000	133,580	2295,337
1	0,000	133,630	2294,934
1	0,000	133,680	2295,941
1	0,000	133,680	2296,344
1	0,000	133,730	2294,934
1	0,000	133,780	2296,545
1	0,000	133,780	2298,962
1	0,000	133,830	2299,567
1	0,000	133,881	2299,768
1	0,000	133,881	2301,379
1	0,000	133,930	2301,581
1	0,000	133,981	2302,487
1	0,000	133,981	2302,991
1	0,000	134,031	2303,394
1	0,000	134,081	2303,696
1	0,000	134,081	2306,415
1	0,000	134,131	2304,099
1	0,000	134,182	2304,703
1	0,000	134,182	2302,991
1	0,000	134,232	2306,314
1	0,000	134,282	2308,228
1	0,000	134,282	2308,932
1	0,000	134,332	2309,537
1	0,000	134,382	2311,047
1	0,000	134,382	2311,853
1	0,000	134,433	2312,457
1	0,000	134,483	2312,357
1	0,000	134,483	2312,256
1	0,000	134,533	2313,464
1	0,000	134,582	2312,155
1	0,000	134,582	2316,687
1	0,000	134,633	2316,586
1	0,000	134,682	2316,385
1	0,000	134,682	2319,104
1	0,000	134,732	2317,795
1	0,000	134,782	2318,298
1	0,000	134,782	2320,111
1	0,000	134,833	2321,420
1	0,000	134,882	2321,521
1	0,000	134,882	2322,729
1	0,000	134,932	2323,132
1	0,000	134,982	2323,837
1	0,000	134,982	2325,046
1	0,000	135,033	2325,146
1	0,000	135,082	2325,348
1	0,000	135,082	2325,348
1	0,000	135,132	2328,671
1	0,000	135,183	2327,664
1	0,000	135,183	2329,175
1	0,000	135,232	2328,973
1	0,000	135,283	2329,376
1	0,000	135,283	2331,693
1	0,000	135,333	2332,095
1	0,000	135,383	2332,498
1	0,000	135,383	2334,311
1	0,000	135,433	2333,606
1	0,000	135,483	2332,498
1	0,000	135,483	2333,102
1	0,000	135,534	2335,419
1	0,000	135,584	2337,433
1	0,000	135,584	2335,721
1	0,000	135,634	2338,239
1	0,000	135,685	2338,541
1	0,000	135,685	2339,749
1	0,000	135,734	2340,958
1	0,000	135,785	2341,562
1	0,000	135,785	2344,080
1	0,000	135,834	2342,770
1	0,000	135,885	2344,080
1	0,000	135,885	2344,080
1	0,000	135,934	2345,389
1	0,000	135,985	2345,892
1	0,000	135,985	2347,101
1	0,000	136,035	2345,993
1	0,000	136,085	2347,000
1	0,000	136,085	2347,604
1	0,000	136,135	2349,820
1	0,000	136,185	2351,230
1	0,000	136,185	2350,928
1	0,000	136,236	2351,028
1	0,000	136,286	2351,834
1	0,000	136,286	2353,949
1	0,000	136,336	2353,043
1	0,000	136,386	2354,453
1	0,000	136,386	2355,359
1	0,000	136,436	2356,567
1	0,000	136,487	2357,071
1	0,000	136,487	2357,373
1	0,000	136,537	2357,776
1	0,000	136,587	2359,689
1	0,000	136,587	2361,804
1	0,000	136,637	2360,394
1	0,000	136,687	2361,502
1	0,000	136,687	2363,214
1	0,000	136,738	2362,509
1	0,000	136,788	2364,020
1	0,000	136,788	2363,818
1	0,000	136,838	2365,631
1	0,000	136,888	2366,135
1	0,000	136,888	2368,451
1	0,000	136,938	2367,645
1	0,000	136,989	2367,847
1	0,000	136,989	2367,947
1	0,000	137,039	2368,854
1	0,000	137,089	2369,257
1	0,000	137,089	2370,566
1	0,000	137,139	2373,285
1	0,000	137,189	2372,479
1	0,000	137,189	2371,170
1	0,000	137,239	2374,997
1	0,000	137,289	2375,903
1	0,000	137,289	2375,198
1	0,000	137,339	2375,903
1	0,000	137,389	2377,515
1	0,000	137,389	2377,313
1	0,000	137,439	2380,435
1	0,000	137,489	2381,241
1	0,000	137,489	2381,241
1	0,000	137,540	2381,744
1	0,000	137,590	2380,737
1	0,000	137,590	2381,644
1	0,000	137,640	2382,953
1	0,000	137,690	2383,960
1	0,000	137,690	2388,089
1	0,000	137,740	2385,370
1	0,000	137,789	2384,262
1	0,000	137,789	2385,873
1	0,000	137,840	2387,283
1	0,000	137,890	2389,600
1	0,000	137,890	2387,686
1	0,000	137,940	2389,499
1	0,000	137,990	2389,499
1	0,000	137,990	2392,117
1	0,000	138,040	2392,822
1	0,000	138,090	2393,427
1	0,000	138,090	2394,736
1	0,000	138,140	2394,131
1	0,000	138,190	2396,951
1	0,000	138,190	2396,851
1	0,000	138,240	2395,743
1	0,000	138,290	2396,951
1	0,000	138,290	2398,059
1	0,000	138,341	2399,167
1	0,000	138,390	2399,368
1	0,000	138,390	2400,577
1	0,000	138,441	2401,483
1	0,000	138,491	2404,303
1	0,000	138,491	2404,807
1	0,000	138,541	2405,310
1	0,000	138,591	2405,008
1	0,000	138,591	2406,015
1	0,000	138,641	2406,821
1	0,000	138,691	2407,022
1	0,000	138,691	2408,029
1	0,000	138,742	2408,633
1	0,000	138,792	2408,231
1	0,000	138,792	2407,425
1	0,000	138,842	2409,741
1	0,000	138,892	2412,057
1	0,000	138,892	2412,561
1	0,000	138,942	2413,467
1	0,000	138,992	2413,971
1	0,000	138,992	2414,877
1	0,000	139,042	2414,575
1	0,000	139,092	2416,489
1	0,000	139,092	2417,798
1	0,000	139,143	2418,906
1	0,000	139,192	2418,201
1	0,000	139,192	2418,503
1	0,000	139,243	2421,121
1	0,000	139,243	2423,135
1	0,000	139,293	2422,632
1	0,000	139,343	2423,135
1	0,000	139,343	2424,445
1	0,000	139,394	2425,250
1	0,000	139,444	2424,243
1	0,000	139,444	2425,854
1	0,000	139,494	2426,962
1	0,000	139,545	2426,761
1	0,000	139,545	2428,372
1	0,000	139,594	2429,077
1	0,000	139,645	2429,681
1	0,000	139,645	2430,487
1	0,000	139,695	2431,192
1	0,000	139,745	2431,998
1	0,000	139,745	2432,803
1	0,000	139,795	2433,307
1	0,000	139,846	2435,019
1	0,000	139,846	2434,818
1	0,000	139,894	2435,925
1	0,000	139,935	2436,328
1	0,000	139,935	2436,932
1	0,000	139,966	2437,033
1	0,000	139,987	2437,436
1	0,000	139,987	2437,637
1	0,000	139,998	2437,537
1	0,000	140,000	2437,537
1	0,000	140,000	2437,537
