Col.n° Rot(deg) Lin(mm) CHR(um)
1	0,000	80,080	1624,219
1	0,000	80,080	1627,139
1	0,000	80,125	1622,708
1	0,000	80,175	1625,327
1	0,000	80,175	1624,219
1	0,000	80,226	1625,125
1	0,000	80,276	1629,959
1	0,000	80,276	1626,334
1	0,000	80,326	1628,348
1	0,000	80,376	1627,844
1	0,000	80,376	1625,931
1	0,000	80,426	1628,751
1	0,000	80,476	1628,146
1	0,000	80,476	1626,535
1	0,000	80,526	1625,830
1	0,000	80,576	1628,851
1	0,000	80,576	1624,722
1	0,000	80,626	1625,830
1	0,000	80,676	1629,959
1	0,000	80,676	1623,111
1	0,000	80,726	1624,722
1	0,000	80,777	1626,535
1	0,000	80,777	1626,636
1	0,000	80,827	1628,549
1	0,000	80,877	1628,448
1	0,000	80,877	1626,938
1	0,000	80,927	1629,657
1	0,000	80,978	1628,549
1	0,000	80,978	1631,772
1	0,000	81,028	1629,355
1	0,000	81,078	1629,355
1	0,000	81,078	1628,851
1	0,000	81,128	1628,046
1	0,000	81,178	1631,973
1	0,000	81,178	1628,046
1	0,000	81,228	1628,549
1	0,000	81,279	1629,456
1	0,000	81,279	1627,844
1	0,000	81,329	1629,053
1	0,000	81,379	1629,355
1	0,000	81,379	1633,484
1	0,000	81,430	1629,858
1	0,000	81,480	1630,966
1	0,000	81,480	1630,664
1	0,000	81,529	1630,463
1	0,000	81,579	1632,275
1	0,000	81,579	1629,254
1	0,000	81,629	1629,959
1	0,000	81,679	1630,463
1	0,000	81,679	1629,456
1	0,000	81,730	1631,268
1	0,000	81,780	1632,074
1	0,000	81,780	1630,563
1	0,000	81,831	1630,060
1	0,000	81,881	1630,664
1	0,000	81,881	1631,067
1	0,000	81,931	1630,765
1	0,000	81,980	1631,873
1	0,000	81,980	1631,369
1	0,000	82,031	1632,074
1	0,000	82,081	1634,390
1	0,000	82,081	1630,362
1	0,000	82,131	1631,470
1	0,000	82,181	1633,081
1	0,000	82,181	1631,873
1	0,000	82,231	1634,894
1	0,000	82,281	1632,578
1	0,000	82,281	1634,189
1	0,000	82,331	1632,678
1	0,000	82,381	1635,800
1	0,000	82,381	1634,491
1	0,000	82,431	1634,290
1	0,000	82,482	1634,390
1	0,000	82,482	1635,397
1	0,000	82,531	1634,692
1	0,000	82,581	1634,995
1	0,000	82,581	1633,887
1	0,000	82,631	1633,685
1	0,000	82,681	1636,304
1	0,000	82,681	1632,880
1	0,000	82,731	1635,498
1	0,000	82,782	1634,189
1	0,000	82,782	1634,793
1	0,000	82,831	1634,290
1	0,000	82,882	1634,390
1	0,000	82,882	1635,095
1	0,000	82,932	1637,714
1	0,000	82,982	1633,786
1	0,000	82,982	1636,807
1	0,000	83,032	1637,009
1	0,000	83,082	1636,203
1	0,000	83,082	1637,915
1	0,000	83,132	1637,009
1	0,000	83,183	1633,786
1	0,000	83,183	1636,203
1	0,000	83,233	1637,613
1	0,000	83,283	1637,311
1	0,000	83,283	1636,505
1	0,000	83,333	1638,419
1	0,000	83,383	1635,498
1	0,000	83,383	1636,505
1	0,000	83,433	1640,735
1	0,000	83,483	1635,599
1	0,000	83,483	1637,512
1	0,000	83,534	1636,505
1	0,000	83,584	1637,613
1	0,000	83,584	1637,009
1	0,000	83,634	1637,512
1	0,000	83,685	1638,620
1	0,000	83,685	1639,426
1	0,000	83,736	1639,526
1	0,000	83,785	1640,634
1	0,000	83,785	1639,728
1	0,000	83,836	1643,051
1	0,000	83,886	1638,016
1	0,000	83,886	1639,124
1	0,000	83,936	1641,440
1	0,000	83,986	1640,936
1	0,000	83,986	1639,124
1	0,000	84,036	1638,116
1	0,000	84,086	1639,627
1	0,000	84,086	1638,721
1	0,000	84,137	1640,030
1	0,000	84,187	1642,850
1	0,000	84,187	1637,613
1	0,000	84,237	1640,433
1	0,000	84,237	1641,843
1	0,000	84,287	1640,936
1	0,000	84,337	1641,440
1	0,000	84,387	1640,332
1	0,000	84,387	1642,749
1	0,000	84,438	1643,454
1	0,000	84,438	1640,735
1	0,000	84,488	1642,648
1	0,000	84,538	1640,735
1	0,000	84,538	1643,655
1	0,000	84,588	1644,360
1	0,000	84,638	1642,648
1	0,000	84,638	1644,864
1	0,000	84,688	1643,051
1	0,000	84,738	1645,972
1	0,000	84,738	1645,569
1	0,000	84,788	1642,145
1	0,000	84,839	1639,828
1	0,000	84,839	1641,440
1	0,000	84,889	1643,152
1	0,000	84,940	1644,763
1	0,000	84,940	1643,253
1	0,000	84,990	1643,555
1	0,000	85,040	1644,159
1	0,000	85,040	1642,548
1	0,000	85,090	1642,447
1	0,000	85,140	1644,662
1	0,000	85,140	1647,986
1	0,000	85,190	1644,763
1	0,000	85,241	1642,850
1	0,000	85,241	1644,461
1	0,000	85,290	1645,770
1	0,000	85,341	1646,576
1	0,000	85,341	1646,173
1	0,000	85,392	1646,173
1	0,000	85,442	1646,274
1	0,000	85,442	1648,288
1	0,000	85,492	1643,958
1	0,000	85,542	1647,180
1	0,000	85,542	1644,763
1	0,000	85,592	1647,482
1	0,000	85,642	1646,274
1	0,000	85,642	1647,482
1	0,000	85,693	1648,288
1	0,000	85,743	1647,482
1	0,000	85,743	1644,360
1	0,000	85,793	1645,871
1	0,000	85,843	1649,295
1	0,000	85,843	1646,375
1	0,000	85,893	1646,777
1	0,000	85,944	1648,187
1	0,000	85,944	1647,986
1	0,000	85,993	1646,777
1	0,000	86,044	1649,094
1	0,000	86,044	1650,000
1	0,000	86,094	1650,604
1	0,000	86,144	1647,986
1	0,000	86,144	1650,806
1	0,000	86,194	1649,597
1	0,000	86,244	1649,396
1	0,000	86,244	1649,194
1	0,000	86,294	1650,403
1	0,000	86,345	1651,511
1	0,000	86,345	1653,223
1	0,000	86,395	1651,511
1	0,000	86,445	1651,208
1	0,000	86,445	1653,021
1	0,000	86,495	1652,115
1	0,000	86,546	1652,316
1	0,000	86,546	1653,323
1	0,000	86,596	1651,813
1	0,000	86,646	1652,417
1	0,000	86,646	1652,216
1	0,000	86,696	1651,108
1	0,000	86,746	1650,101
1	0,000	86,746	1650,806
1	0,000	86,796	1651,611
1	0,000	86,846	1653,122
1	0,000	86,846	1653,223
1	0,000	86,896	1654,633
1	0,000	86,946	1655,640
1	0,000	86,946	1654,230
1	0,000	86,996	1654,431
1	0,000	87,045	1654,230
1	0,000	87,045	1655,136
1	0,000	87,096	1653,928
1	0,000	87,146	1655,438
1	0,000	87,146	1655,740
1	0,000	87,196	1653,928
1	0,000	87,246	1653,525
1	0,000	87,246	1654,935
1	0,000	87,296	1656,042
1	0,000	87,345	1656,143
1	0,000	87,345	1657,755
1	0,000	87,396	1655,438
1	0,000	87,446	1655,942
1	0,000	87,446	1656,949
1	0,000	87,496	1658,057
1	0,000	87,547	1658,157
1	0,000	87,547	1658,157
1	0,000	87,596	1657,352
1	0,000	87,646	1657,553
1	0,000	87,646	1658,560
1	0,000	87,696	1657,150
1	0,000	87,746	1658,762
1	0,000	87,746	1659,567
1	0,000	87,797	1659,668
1	0,000	87,846	1659,265
1	0,000	87,846	1658,862
1	0,000	87,897	1659,064
1	0,000	87,947	1659,467
1	0,000	87,947	1659,467
1	0,000	87,997	1659,769
1	0,000	88,047	1659,366
1	0,000	88,047	1660,373
1	0,000	88,097	1660,776
1	0,000	88,147	1660,675
1	0,000	88,147	1660,373
1	0,000	88,198	1660,675
1	0,000	88,248	1660,876
1	0,000	88,248	1661,078
1	0,000	88,298	1661,481
1	0,000	88,348	1661,481
1	0,000	88,348	1661,380
1	0,000	88,399	1661,179
1	0,000	88,449	1661,279
1	0,000	88,449	1661,279
1	0,000	88,499	1661,682
1	0,000	88,549	1661,984
1	0,000	88,549	1662,488
1	0,000	88,599	1662,790
1	0,000	88,649	1662,891
1	0,000	88,649	1663,092
1	0,000	88,700	1663,495
1	0,000	88,750	1663,193
1	0,000	88,750	1663,797
1	0,000	88,800	1663,898
1	0,000	88,850	1664,200
1	0,000	88,850	1664,301
1	0,000	88,900	1664,703
1	0,000	88,950	1665,005
1	0,000	88,950	1665,106
1	0,000	89,001	1665,308
1	0,000	89,050	1665,408
1	0,000	89,050	1665,408
1	0,000	89,100	1665,408
1	0,000	89,151	1665,811
1	0,000	89,151	1666,113
1	0,000	89,202	1666,214
1	0,000	89,251	1666,315
1	0,000	89,251	1666,718
1	0,000	89,301	1666,818
1	0,000	89,352	1667,120
1	0,000	89,352	1667,322
1	0,000	89,401	1667,523
1	0,000	89,451	1667,523
1	0,000	89,451	1668,127
1	0,000	89,502	1668,329
1	0,000	89,502	1668,329
1	0,000	89,552	1669,537
1	0,000	89,602	1669,235
1	0,000	89,602	1669,135
1	0,000	89,653	1669,034
1	0,000	89,703	1669,235
1	0,000	89,703	1669,739
1	0,000	89,754	1670,041
1	0,000	89,803	1669,940
1	0,000	89,803	1670,343
1	0,000	89,854	1670,444
1	0,000	89,903	1670,544
1	0,000	89,903	1670,847
1	0,000	89,954	1671,048
1	0,000	90,004	1671,249
1	0,000	90,004	1671,451
1	0,000	90,054	1671,652
1	0,000	90,104	1671,753
1	0,000	90,104	1673,767
1	0,000	90,154	1672,357
1	0,000	90,204	1672,357
1	0,000	90,204	1672,559
1	0,000	90,254	1672,760
1	0,000	90,305	1673,264
1	0,000	90,305	1673,566
1	0,000	90,355	1673,868
1	0,000	90,406	1674,472
1	0,000	90,406	1674,271
1	0,000	90,456	1674,371
1	0,000	90,506	1674,673
1	0,000	90,506	1674,875
1	0,000	90,555	1675,177
1	0,000	90,605	1675,278
1	0,000	90,605	1675,278
1	0,000	90,656	1675,278
1	0,000	90,706	1675,781
1	0,000	90,706	1676,486
1	0,000	90,756	1676,083
1	0,000	90,806	1676,285
1	0,000	90,806	1676,587
1	0,000	90,857	1676,587
1	0,000	90,906	1676,889
1	0,000	90,906	1677,292
1	0,000	90,957	1677,493
1	0,000	91,006	1677,090
1	0,000	91,006	1678,198
1	0,000	91,056	1678,299
1	0,000	91,106	1678,098
1	0,000	91,106	1678,702
1	0,000	91,157	1679,004
1	0,000	91,206	1679,004
1	0,000	91,206	1679,205
1	0,000	91,257	1679,507
1	0,000	91,307	1679,205
1	0,000	91,307	1679,910
1	0,000	91,357	1679,910
1	0,000	91,407	1680,212
1	0,000	91,407	1680,716
1	0,000	91,458	1680,817
1	0,000	91,508	1681,622
1	0,000	91,508	1681,421
1	0,000	91,558	1681,924
1	0,000	91,608	1682,428
1	0,000	91,608	1682,227
1	0,000	91,658	1682,831
1	0,000	91,709	1683,234
1	0,000	91,709	1683,133
1	0,000	91,758	1683,032
1	0,000	91,808	1683,435
1	0,000	91,808	1683,939
1	0,000	91,859	1684,241
1	0,000	91,909	1684,341
1	0,000	91,909	1684,644
1	0,000	91,959	1685,046
1	0,000	92,009	1685,046
1	0,000	92,009	1687,061
1	0,000	92,059	1685,651
1	0,000	92,109	1685,651
1	0,000	92,109	1685,751
1	0,000	92,159	1685,852
1	0,000	92,209	1686,859
1	0,000	92,209	1687,363
1	0,000	92,259	1688,470
1	0,000	92,309	1689,075
1	0,000	92,309	1688,370
1	0,000	92,360	1688,370
1	0,000	92,410	1688,269
1	0,000	92,410	1688,672
1	0,000	92,460	1688,168
1	0,000	92,510	1688,168
1	0,000	92,510	1688,672
1	0,000	92,560	1689,075
1	0,000	92,609	1689,780
1	0,000	92,609	1691,290
1	0,000	92,660	1691,693
1	0,000	92,711	1691,895
1	0,000	92,711	1691,290
1	0,000	92,761	1690,887
1	0,000	92,811	1690,988
1	0,000	92,811	1691,290
1	0,000	92,862	1692,197
1	0,000	92,912	1691,794
1	0,000	92,912	1692,297
1	0,000	92,962	1692,902
1	0,000	93,012	1693,103
1	0,000	93,012	1692,902
1	0,000	93,062	1693,002
1	0,000	93,112	1693,304
1	0,000	93,112	1693,506
1	0,000	93,163	1694,110
1	0,000	93,213	1694,009
1	0,000	93,213	1694,412
1	0,000	93,263	1694,916
1	0,000	93,313	1695,016
1	0,000	93,313	1694,916
1	0,000	93,363	1695,319
1	0,000	93,413	1696,326
1	0,000	93,413	1696,225
1	0,000	93,463	1695,923
1	0,000	93,514	1696,326
1	0,000	93,514	1696,426
1	0,000	93,564	1696,729
1	0,000	93,614	1696,930
1	0,000	93,614	1697,031
1	0,000	93,664	1697,534
1	0,000	93,714	1697,836
1	0,000	93,714	1698,340
1	0,000	93,764	1698,541
1	0,000	93,815	1698,642
1	0,000	93,815	1698,944
1	0,000	93,865	1699,246
1	0,000	93,915	1699,448
1	0,000	93,915	1699,649
1	0,000	93,965	1699,951
1	0,000	94,015	1700,858
1	0,000	94,015	1700,757
1	0,000	94,065	1702,066
1	0,000	94,065	1701,562
1	0,000	94,115	1701,663
1	0,000	94,166	1702,167
1	0,000	94,216	1702,066
1	0,000	94,216	1702,771
1	0,000	94,266	1702,570
1	0,000	94,316	1704,684
1	0,000	94,316	1703,476
1	0,000	94,366	1703,275
1	0,000	94,416	1704,785
1	0,000	94,416	1705,490
1	0,000	94,466	1704,584
1	0,000	94,466	1704,684
1	0,000	94,516	1704,584
1	0,000	94,566	1704,886
1	0,000	94,566	1705,289
1	0,000	94,616	1705,591
1	0,000	94,666	1705,792
1	0,000	94,666	1705,792
1	0,000	94,716	1706,094
1	0,000	94,766	1706,195
1	0,000	94,766	1706,497
1	0,000	94,817	1706,799
1	0,000	94,867	1707,001
1	0,000	94,867	1707,202
1	0,000	94,917	1707,806
1	0,000	94,967	1708,109
1	0,000	94,967	1708,209
1	0,000	95,017	1708,411
1	0,000	95,068	1708,813
1	0,000	95,068	1709,015
1	0,000	95,118	1709,317
1	0,000	95,169	1709,720
1	0,000	95,169	1709,821
1	0,000	95,219	1710,425
1	0,000	95,269	1709,921
1	0,000	95,269	1710,928
1	0,000	95,319	1710,928
1	0,000	95,369	1711,130
1	0,000	95,369	1711,835
1	0,000	95,420	1712,036
1	0,000	95,470	1712,439
1	0,000	95,470	1712,540
1	0,000	95,520	1712,842
1	0,000	95,569	1713,144
1	0,000	95,569	1713,345
1	0,000	95,620	1712,640
1	0,000	95,670	1713,043
1	0,000	95,670	1714,352
1	0,000	95,720	1714,554
1	0,000	95,770	1714,957
1	0,000	95,770	1715,359
1	0,000	95,820	1715,662
1	0,000	95,870	1715,964
1	0,000	95,870	1715,863
1	0,000	95,920	1716,064
1	0,000	95,971	1716,467
1	0,000	95,971	1716,971
1	0,000	96,020	1717,374
1	0,000	96,070	1717,676
1	0,000	96,070	1717,575
1	0,000	96,120	1718,079
1	0,000	96,170	1718,481
1	0,000	96,170	1718,582
1	0,000	96,220	1718,884
1	0,000	96,271	1719,388
1	0,000	96,271	1719,589
1	0,000	96,321	1719,791
1	0,000	96,371	1720,093
1	0,000	96,371	1720,395
1	0,000	96,421	1720,496
1	0,000	96,471	1720,999
1	0,000	96,471	1721,402
1	0,000	96,522	1721,704
1	0,000	96,572	1722,107
1	0,000	96,572	1722,409
1	0,000	96,622	1722,409
1	0,000	96,673	1722,711
1	0,000	96,673	1723,215
1	0,000	96,723	1723,618
1	0,000	96,773	1723,819
1	0,000	96,773	1724,323
1	0,000	96,823	1724,524
1	0,000	96,873	1724,826
1	0,000	96,873	1725,128
1	0,000	96,923	1725,430
1	0,000	96,973	1725,732
1	0,000	96,973	1725,934
1	0,000	97,023	1726,337
1	0,000	97,074	1726,740
1	0,000	97,074	1726,941
1	0,000	97,124	1726,941
1	0,000	97,173	1727,545
1	0,000	97,173	1727,747
1	0,000	97,224	1728,049
1	0,000	97,274	1728,452
1	0,000	97,274	1728,653
1	0,000	97,324	1729,257
1	0,000	97,375	1729,459
1	0,000	97,375	1729,257
1	0,000	97,425	1729,660
1	0,000	97,475	1730,466
1	0,000	97,475	1729,861
1	0,000	97,525	1730,466
1	0,000	97,575	1731,271
1	0,000	97,575	1731,372
1	0,000	97,625	1731,674
1	0,000	97,675	1731,876
1	0,000	97,675	1732,379
1	0,000	97,725	1732,782
1	0,000	97,776	1733,185
1	0,000	97,776	1733,386
1	0,000	97,826	1733,588
1	0,000	97,876	1733,789
1	0,000	97,876	1734,091
1	0,000	97,926	1735,803
1	0,000	97,976	1736,710
1	0,000	97,976	1736,911
1	0,000	98,026	1737,012
1	0,000	98,076	1737,314
1	0,000	98,076	1736,307
1	0,000	98,126	1736,407
1	0,000	98,176	1737,012
1	0,000	98,176	1737,213
1	0,000	98,227	1737,717
1	0,000	98,276	1737,817
1	0,000	98,276	1738,120
1	0,000	98,326	1738,321
1	0,000	98,377	1738,522
1	0,000	98,377	1738,824
1	0,000	98,427	1739,328
1	0,000	98,477	1739,429
1	0,000	98,477	1739,832
1	0,000	98,527	1740,637
1	0,000	98,577	1740,738
1	0,000	98,577	1741,040
1	0,000	98,627	1741,241
1	0,000	98,677	1741,544
1	0,000	98,677	1742,047
1	0,000	98,727	1742,249
1	0,000	98,777	1742,450
1	0,000	98,777	1742,349
1	0,000	98,828	1743,155
1	0,000	98,878	1743,558
1	0,000	98,878	1743,961
1	0,000	98,929	1744,162
1	0,000	98,979	1744,363
1	0,000	98,979	1744,766
1	0,000	99,028	1744,968
1	0,000	99,078	1745,874
1	0,000	99,078	1746,881
1	0,000	99,128	1747,385
1	0,000	99,178	1746,881
1	0,000	99,178	1746,478
1	0,000	99,229	1747,083
1	0,000	99,279	1747,687
1	0,000	99,279	1747,989
1	0,000	99,329	1748,694
1	0,000	99,379	1748,895
1	0,000	99,379	1748,996
1	0,000	99,429	1748,996
1	0,000	99,479	1749,399
1	0,000	99,479	1749,600
1	0,000	99,530	1750,003
1	0,000	99,579	1750,305
1	0,000	99,579	1750,909
1	0,000	99,630	1751,312
1	0,000	99,680	1751,816
1	0,000	99,680	1751,614
1	0,000	99,730	1752,118
1	0,000	99,730	1752,319
1	0,000	99,780	1752,621
1	0,000	99,831	1753,125
1	0,000	99,831	1753,125
1	0,000	99,880	1753,629
1	0,000	99,930	1754,233
1	0,000	99,930	1754,333
1	0,000	99,981	1754,535
1	0,000	100,031	1754,736
1	0,000	100,031	1755,341
1	0,000	100,080	1755,743
1	0,000	100,130	1756,146
1	0,000	100,130	1756,549
1	0,000	100,180	1756,750
1	0,000	100,230	1757,153
1	0,000	100,230	1757,556
1	0,000	100,281	1757,758
1	0,000	100,331	1758,160
1	0,000	100,331	1758,765
1	0,000	100,381	1758,563
1	0,000	100,431	1758,765
1	0,000	100,431	1759,268
1	0,000	100,481	1761,383
1	0,000	100,531	1760,074
1	0,000	100,531	1760,678
1	0,000	100,581	1761,282
1	0,000	100,631	1761,383
1	0,000	100,631	1761,685
1	0,000	100,681	1761,987
1	0,000	100,731	1761,987
1	0,000	100,731	1762,592
1	0,000	100,782	1762,592
1	0,000	100,832	1764,606
1	0,000	100,832	1763,699
1	0,000	100,882	1763,800
1	0,000	100,932	1763,901
1	0,000	100,932	1764,606
1	0,000	100,983	1764,606
1	0,000	101,032	1764,807
1	0,000	101,032	1766,016
1	0,000	101,082	1767,023
1	0,000	101,132	1766,318
1	0,000	101,132	1766,821
1	0,000	101,183	1767,325
1	0,000	101,233	1767,627
1	0,000	101,233	1767,929
1	0,000	101,283	1768,231
1	0,000	101,333	1768,433
1	0,000	101,333	1768,936
1	0,000	101,383	1769,339
1	0,000	101,433	1769,943
1	0,000	101,433	1770,044
1	0,000	101,483	1770,447
1	0,000	101,534	1770,547
1	0,000	101,534	1770,547
1	0,000	101,584	1771,252
1	0,000	101,634	1771,756
1	0,000	101,634	1772,058
1	0,000	101,684	1772,260
1	0,000	101,734	1772,662
1	0,000	101,734	1772,461
1	0,000	101,784	1773,569
1	0,000	101,835	1773,468
1	0,000	101,835	1773,972
1	0,000	101,884	1774,274
1	0,000	101,935	1774,777
1	0,000	101,935	1774,374
1	0,000	101,985	1775,482
1	0,000	102,035	1775,885
1	0,000	102,035	1776,590
1	0,000	102,086	1778,201
1	0,000	102,136	1777,798
1	0,000	102,136	1778,201
1	0,000	102,186	1777,798
1	0,000	102,237	1778,201
1	0,000	102,237	1779,108
1	0,000	102,287	1778,705
1	0,000	102,336	1779,108
1	0,000	102,336	1778,806
1	0,000	102,387	1779,712
1	0,000	102,438	1780,115
1	0,000	102,438	1780,920
1	0,000	102,487	1780,417
1	0,000	102,537	1782,230
1	0,000	102,537	1782,129
1	0,000	102,587	1783,841
1	0,000	102,638	1783,237
1	0,000	102,638	1783,640
1	0,000	102,688	1783,136
1	0,000	102,738	1783,136
1	0,000	102,738	1783,640
1	0,000	102,789	1784,042
1	0,000	102,839	1784,747
1	0,000	102,839	1785,251
1	0,000	102,888	1784,949
1	0,000	102,939	1785,553
1	0,000	102,939	1786,057
1	0,000	102,989	1786,157
1	0,000	103,039	1786,661
1	0,000	103,039	1787,164
1	0,000	103,090	1787,668
1	0,000	103,140	1787,970
1	0,000	103,140	1788,071
1	0,000	103,190	1788,373
1	0,000	103,240	1789,178
1	0,000	103,240	1789,380
1	0,000	103,291	1789,984
1	0,000	103,341	1790,387
1	0,000	103,341	1790,689
1	0,000	103,391	1790,991
1	0,000	103,441	1791,193
1	0,000	103,441	1791,495
1	0,000	103,491	1792,200
1	0,000	103,541	1792,804
1	0,000	103,541	1793,106
1	0,000	103,592	1793,307
1	0,000	103,642	1793,811
1	0,000	103,642	1794,214
1	0,000	103,693	1794,516
1	0,000	103,742	1795,020
1	0,000	103,742	1795,322
1	0,000	103,792	1795,624
1	0,000	103,842	1796,027
1	0,000	103,842	1796,329
1	0,000	103,892	1796,732
1	0,000	103,943	1797,134
1	0,000	103,943	1797,739
1	0,000	103,993	1798,041
1	0,000	104,043	1798,343
1	0,000	104,043	1798,242
1	0,000	104,093	1798,947
1	0,000	104,143	1799,652
1	0,000	104,143	1800,156
1	0,000	104,194	1801,566
1	0,000	104,244	1801,263
1	0,000	104,244	1801,666
1	0,000	104,294	1804,385
1	0,000	104,294	1802,371
1	0,000	104,344	1803,278
1	0,000	104,395	1802,472
1	0,000	104,444	1802,673
1	0,000	104,444	1802,875
1	0,000	104,495	1803,479
1	0,000	104,495	1804,184
1	0,000	104,545	1804,285
1	0,000	104,596	1804,587
1	0,000	104,596	1804,990
1	0,000	104,646	1805,392
1	0,000	104,696	1805,795
1	0,000	104,696	1806,198
1	0,000	104,746	1806,601
1	0,000	104,797	1806,903
1	0,000	104,797	1807,407
1	0,000	104,847	1808,212
1	0,000	104,898	1807,910
1	0,000	104,898	1808,615
1	0,000	104,948	1809,219
1	0,000	104,998	1809,521
1	0,000	104,998	1809,924
1	0,000	105,048	1810,327
1	0,000	105,098	1810,629
1	0,000	105,098	1811,234
1	0,000	105,148	1811,536
1	0,000	105,199	1811,938
1	0,000	105,199	1812,643
1	0,000	105,249	1812,845
1	0,000	105,300	1812,946
1	0,000	105,300	1813,852
1	0,000	105,350	1813,953
1	0,000	105,400	1814,255
1	0,000	105,400	1814,859
1	0,000	105,450	1815,161
1	0,000	105,500	1815,564
1	0,000	105,500	1815,866
1	0,000	105,550	1816,269
1	0,000	105,600	1816,873
1	0,000	105,600	1817,679
1	0,000	105,650	1817,981
1	0,000	105,701	1817,880
1	0,000	105,701	1818,988
1	0,000	105,750	1819,089
1	0,000	105,800	1819,693
1	0,000	105,800	1820,297
1	0,000	105,850	1820,499
1	0,000	105,901	1820,801
1	0,000	105,901	1821,304
1	0,000	105,951	1821,405
1	0,000	106,001	1821,808
1	0,000	106,001	1821,909
1	0,000	106,051	1823,016
1	0,000	106,101	1822,714
1	0,000	106,101	1823,419
1	0,000	106,151	1823,822
1	0,000	106,201	1824,124
1	0,000	106,201	1824,930
1	0,000	106,251	1825,131
1	0,000	106,301	1825,534
1	0,000	106,301	1826,038
1	0,000	106,351	1826,743
1	0,000	106,402	1827,649
1	0,000	106,402	1828,656
1	0,000	106,451	1827,951
1	0,000	106,501	1828,152
1	0,000	106,501	1828,958
1	0,000	106,551	1829,059
1	0,000	106,601	1829,462
1	0,000	106,601	1829,965
1	0,000	106,652	1830,066
1	0,000	106,702	1830,670
1	0,000	106,702	1831,274
1	0,000	106,752	1831,476
1	0,000	106,803	1831,778
1	0,000	106,803	1832,181
1	0,000	106,853	1832,483
1	0,000	106,903	1832,986
1	0,000	106,903	1833,591
1	0,000	106,954	1834,195
1	0,000	107,004	1834,900
1	0,000	107,004	1834,900
1	0,000	107,054	1835,504
1	0,000	107,104	1836,108
1	0,000	107,104	1836,411
1	0,000	107,155	1836,914
1	0,000	107,205	1837,115
1	0,000	107,205	1837,820
1	0,000	107,255	1838,324
1	0,000	107,305	1838,828
1	0,000	107,305	1839,331
1	0,000	107,355	1839,835
1	0,000	107,405	1840,036
1	0,000	107,405	1840,540
1	0,000	107,455	1840,942
1	0,000	107,505	1841,345
1	0,000	107,505	1842,050
1	0,000	107,556	1842,050
1	0,000	107,605	1842,654
1	0,000	107,605	1843,158
1	0,000	107,656	1843,863
1	0,000	107,706	1844,568
1	0,000	107,706	1844,971
1	0,000	107,756	1845,172
1	0,000	107,806	1845,676
1	0,000	107,806	1845,978
1	0,000	107,856	1846,280
1	0,000	107,906	1846,884
1	0,000	107,906	1847,186
1	0,000	107,957	1847,690
1	0,000	108,007	1848,193
1	0,000	108,007	1848,596
1	0,000	108,057	1849,100
1	0,000	108,107	1849,402
1	0,000	108,107	1850,006
1	0,000	108,157	1850,308
1	0,000	108,207	1850,812
1	0,000	108,207	1851,315
1	0,000	108,257	1851,819
1	0,000	108,307	1852,222
1	0,000	108,307	1854,739
1	0,000	108,357	1853,027
1	0,000	108,407	1853,430
1	0,000	108,407	1854,135
1	0,000	108,457	1854,538
1	0,000	108,508	1854,840
1	0,000	108,508	1855,545
1	0,000	108,557	1855,847
1	0,000	108,607	1856,451
1	0,000	108,607	1856,854
1	0,000	108,658	1857,458
1	0,000	108,708	1857,861
1	0,000	108,708	1858,163
1	0,000	108,759	1858,868
1	0,000	108,809	1858,768
1	0,000	108,809	1859,171
1	0,000	108,859	1859,674
1	0,000	108,909	1860,379
1	0,000	108,909	1860,681
1	0,000	108,959	1861,084
1	0,000	108,959	1861,890
1	0,000	109,009	1862,292
1	0,000	109,059	1863,098
1	0,000	109,059	1863,199
1	0,000	109,109	1863,702
1	0,000	109,160	1864,307
1	0,000	109,160	1865,414
1	0,000	109,210	1865,314
1	0,000	109,260	1866,522
1	0,000	109,260	1867,126
1	0,000	109,310	1867,126
1	0,000	109,360	1867,429
1	0,000	109,360	1867,429
1	0,000	109,411	1868,234
1	0,000	109,461	1868,536
1	0,000	109,461	1868,738
1	0,000	109,511	1869,241
1	0,000	109,561	1869,946
1	0,000	109,561	1870,953
1	0,000	109,611	1871,658
1	0,000	109,661	1872,363
1	0,000	109,661	1872,665
1	0,000	109,711	1872,766
1	0,000	109,761	1873,370
1	0,000	109,761	1873,572
1	0,000	109,811	1873,874
1	0,000	109,860	1874,478
1	0,000	109,860	1874,377
1	0,000	109,911	1875,485
1	0,000	109,962	1875,787
1	0,000	109,962	1876,593
1	0,000	110,012	1876,996
1	0,000	110,062	1877,600
1	0,000	110,062	1878,104
1	0,000	110,113	1878,506
1	0,000	110,163	1879,715
1	0,000	110,163	1879,211
1	0,000	110,213	1880,923
1	0,000	110,263	1880,017
1	0,000	110,263	1881,024
1	0,000	110,313	1880,420
1	0,000	110,363	1881,427
1	0,000	110,363	1880,017
1	0,000	110,414	1879,916
1	0,000	110,463	1883,038
1	0,000	110,463	1883,542
1	0,000	110,513	1884,045
1	0,000	110,564	1884,650
1	0,000	110,564	1885,254
1	0,000	110,614	1885,757
1	0,000	110,664	1886,060
1	0,000	110,664	1887,067
1	0,000	110,714	1887,570
1	0,000	110,764	1889,182
1	0,000	110,764	1889,081
1	0,000	110,814	1889,182
1	0,000	110,865	1889,584
1	0,000	110,865	1890,491
1	0,000	110,915	1890,692
1	0,000	110,965	1891,095
1	0,000	110,965	1891,296
1	0,000	111,015	1892,706
1	0,000	111,065	1892,908
1	0,000	111,065	1892,606
1	0,000	111,115	1893,210
1	0,000	111,165	1894,016
1	0,000	111,165	1895,224
1	0,000	111,216	1894,620
1	0,000	111,266	1895,627
1	0,000	111,266	1895,828
1	0,000	111,316	1897,339
1	0,000	111,366	1897,742
1	0,000	111,366	1897,540
1	0,000	111,416	1896,130
1	0,000	111,467	1898,547
1	0,000	111,467	1899,554
1	0,000	111,517	1898,547
1	0,000	111,567	1900,058
1	0,000	111,567	1900,461
1	0,000	111,617	1901,569
1	0,000	111,667	1902,173
1	0,000	111,667	1901,871
1	0,000	111,717	1903,079
1	0,000	111,768	1901,065
1	0,000	111,768	1904,388
1	0,000	111,818	1904,993
1	0,000	111,868	1905,396
1	0,000	111,868	1905,396
1	0,000	111,918	1906,100
1	0,000	111,968	1906,906
1	0,000	111,968	1907,108
1	0,000	112,019	1908,115
1	0,000	112,069	1908,719
1	0,000	112,069	1908,920
1	0,000	112,119	1909,424
1	0,000	112,169	1910,229
1	0,000	112,169	1910,431
1	0,000	112,219	1910,330
1	0,000	112,269	1910,733
1	0,000	112,269	1911,136
1	0,000	112,320	1911,539
1	0,000	112,369	1911,841
1	0,000	112,369	1912,244
1	0,000	112,419	1913,251
1	0,000	112,469	1913,754
1	0,000	112,469	1917,078
1	0,000	112,520	1914,661
1	0,000	112,569	1915,466
1	0,000	112,569	1915,768
1	0,000	112,620	1916,272
1	0,000	112,670	1916,876
1	0,000	112,670	1918,890
1	0,000	112,720	1917,783
1	0,000	112,770	1918,185
1	0,000	112,770	1918,790
1	0,000	112,821	1919,394
1	0,000	112,871	1920,401
1	0,000	112,871	1922,717
1	0,000	112,921	1921,106
1	0,000	112,971	1921,710
1	0,000	112,971	1922,818
1	0,000	113,021	1922,818
1	0,000	113,071	1923,322
1	0,000	113,071	1924,127
1	0,000	113,121	1926,645
1	0,000	113,171	1926,141
1	0,000	113,171	1924,832
1	0,000	113,221	1925,638
1	0,000	113,271	1926,544
1	0,000	113,271	1926,947
1	0,000	113,321	1927,954
1	0,000	113,371	1928,458
1	0,000	113,371	1928,760
1	0,000	113,422	1928,860
1	0,000	113,472	1929,364
1	0,000	113,472	1931,982
1	0,000	113,522	1932,285
1	0,000	113,572	1931,580
1	0,000	113,572	1932,285
1	0,000	113,623	1932,990
1	0,000	113,623	1933,594
1	0,000	113,674	1934,500
1	0,000	113,724	1934,500
1	0,000	113,724	1934,500
1	0,000	113,773	1935,709
1	0,000	113,824	1936,011
1	0,000	113,824	1936,212
1	0,000	113,874	1936,816
1	0,000	113,924	1936,917
1	0,000	113,924	1938,226
1	0,000	113,974	1939,334
1	0,000	114,024	1941,147
1	0,000	114,024	1939,636
1	0,000	114,074	1939,938
1	0,000	114,125	1939,032
1	0,000	114,125	1940,543
1	0,000	114,174	1942,053
1	0,000	114,225	1942,758
1	0,000	114,225	1941,248
1	0,000	114,275	1943,362
1	0,000	114,325	1945,276
1	0,000	114,325	1943,161
1	0,000	114,375	1944,067
1	0,000	114,426	1946,082
1	0,000	114,426	1946,082
1	0,000	114,476	1946,182
1	0,000	114,526	1946,786
1	0,000	114,526	1946,786
1	0,000	114,576	1947,995
1	0,000	114,626	1946,887
1	0,000	114,626	1946,686
1	0,000	114,676	1951,218
1	0,000	114,726	1948,398
1	0,000	114,726	1949,808
1	0,000	114,776	1950,211
1	0,000	114,827	1952,225
1	0,000	114,827	1952,426
1	0,000	114,877	1952,628
1	0,000	114,927	1953,433
1	0,000	114,927	1954,138
1	0,000	114,977	1954,742
1	0,000	115,027	1954,440
1	0,000	115,027	1954,843
1	0,000	115,077	1955,447
1	0,000	115,127	1956,454
1	0,000	115,127	1958,469
1	0,000	115,177	1956,555
1	0,000	115,227	1956,857
1	0,000	115,227	1958,267
1	0,000	115,277	1958,871
1	0,000	115,328	1959,677
1	0,000	115,328	1958,871
1	0,000	115,378	1960,181
1	0,000	115,428	1960,483
1	0,000	115,428	1961,288
1	0,000	115,478	1961,993
1	0,000	115,529	1962,396
1	0,000	115,529	1962,396
1	0,000	115,579	1962,296
1	0,000	115,629	1962,497
1	0,000	115,629	1964,410
1	0,000	115,679	1964,813
1	0,000	115,729	1965,417
1	0,000	115,729	1966,122
1	0,000	115,779	1966,928
1	0,000	115,829	1965,720
1	0,000	115,829	1967,834
1	0,000	115,879	1968,137
1	0,000	115,929	1968,640
1	0,000	115,929	1969,446
1	0,000	115,979	1970,352
1	0,000	116,029	1970,453
1	0,000	116,029	1970,554
1	0,000	116,079	1973,474
1	0,000	116,129	1971,661
1	0,000	116,129	1973,676
1	0,000	116,179	1971,964
1	0,000	116,229	1973,071
1	0,000	116,229	1973,978
1	0,000	116,280	1974,582
1	0,000	116,329	1975,287
1	0,000	116,329	1975,790
1	0,000	116,380	1974,985
1	0,000	116,430	1976,193
1	0,000	116,430	1978,711
1	0,000	116,480	1979,617
1	0,000	116,531	1975,287
1	0,000	116,531	1978,207
1	0,000	116,580	1979,416
1	0,000	116,630	1981,027
1	0,000	116,630	1978,006
1	0,000	116,680	1981,531
1	0,000	116,731	1981,732
1	0,000	116,731	1982,437
1	0,000	116,780	1981,732
1	0,000	116,831	1984,351
1	0,000	116,831	1982,941
1	0,000	116,880	1984,250
1	0,000	116,930	1984,955
1	0,000	116,930	1984,552
1	0,000	116,980	1986,264
1	0,000	117,030	1986,969
1	0,000	117,030	1986,063
1	0,000	117,080	1987,271
1	0,000	117,130	1987,674
1	0,000	117,130	1988,278
1	0,000	117,180	1989,285
1	0,000	117,231	1989,990
1	0,000	117,231	1989,990
1	0,000	117,281	1990,695
1	0,000	117,331	1991,501
1	0,000	117,331	1992,206
1	0,000	117,381	1990,393
1	0,000	117,432	1993,011
1	0,000	117,432	1993,918
1	0,000	117,482	1993,918
1	0,000	117,532	1996,234
1	0,000	117,532	1994,724
1	0,000	117,581	1994,925
1	0,000	117,632	1996,335
1	0,000	117,632	1996,738
1	0,000	117,682	1997,141
1	0,000	117,732	1997,644
1	0,000	117,732	1998,752
1	0,000	117,782	1999,255
1	0,000	117,833	1999,557
1	0,000	117,833	1999,860
1	0,000	117,883	2001,974
1	0,000	117,933	2000,766
1	0,000	117,933	2001,068
1	0,000	117,983	2002,277
1	0,000	118,033	2002,982
1	0,000	118,033	2002,478
1	0,000	118,083	2001,773
1	0,000	118,133	2003,989
1	0,000	118,133	2004,794
1	0,000	118,184	2006,406
1	0,000	118,234	2006,607
1	0,000	118,234	2005,096
1	0,000	118,284	2007,211
1	0,000	118,334	2007,211
1	0,000	118,334	2008,319
1	0,000	118,385	2008,823
1	0,000	118,435	2009,830
1	0,000	118,435	2008,923
1	0,000	118,485	2009,830
1	0,000	118,535	2009,628
1	0,000	118,535	2009,024
1	0,000	118,585	2010,635
1	0,000	118,635	2012,247
1	0,000	118,635	2011,743
1	0,000	118,686	2013,052
1	0,000	118,736	2014,362
1	0,000	118,736	2014,664
1	0,000	118,786	2014,764
1	0,000	118,836	2015,973
1	0,000	118,836	2016,476
1	0,000	118,886	2016,678
1	0,000	118,936	2018,491
1	0,000	118,936	2017,282
1	0,000	118,986	2018,088
1	0,000	119,036	2018,390
1	0,000	119,036	2020,807
1	0,000	119,087	2021,310
1	0,000	119,137	2020,404
1	0,000	119,137	2020,908
1	0,000	119,187	2021,512
1	0,000	119,237	2022,116
1	0,000	119,237	2023,022
1	0,000	119,287	2023,224
1	0,000	119,338	2023,627
1	0,000	119,338	2024,332
1	0,000	119,388	2024,835
1	0,000	119,437	2025,943
1	0,000	119,437	2025,842
1	0,000	119,487	2026,346
1	0,000	119,487	2026,447
1	0,000	119,538	2027,856
1	0,000	119,587	2028,461
1	0,000	119,637	2028,662
1	0,000	119,637	2029,367
1	0,000	119,688	2031,683
1	0,000	119,688	2030,475
1	0,000	119,737	2031,784
1	0,000	119,788	2031,381
1	0,000	119,788	2031,784
1	0,000	119,838	2033,496
1	0,000	119,888	2033,496
1	0,000	119,888	2034,805
1	0,000	119,938	2035,309
1	0,000	119,988	2035,913
1	0,000	119,988	2035,007
1	0,000	120,038	2035,812
1	0,000	120,088	2037,021
1	0,000	120,088	2036,920
1	0,000	120,139	2040,546
1	0,000	120,189	2038,330
1	0,000	120,189	2038,531
1	0,000	120,240	2041,553
1	0,000	120,289	2037,524
1	0,000	120,289	2040,344
1	0,000	120,339	2040,344
1	0,000	120,390	2041,553
1	0,000	120,390	2041,452
1	0,000	120,440	2042,560
1	0,000	120,490	2042,761
1	0,000	120,490	2042,560
1	0,000	120,541	2045,380
1	0,000	120,591	2043,668
1	0,000	120,591	2042,560
1	0,000	120,640	2046,286
1	0,000	120,691	2047,192
1	0,000	120,691	2047,394
1	0,000	120,741	2044,574
1	0,000	120,791	2047,595
1	0,000	120,791	2049,408
1	0,000	120,841	2049,811
1	0,000	120,891	2050,616
1	0,000	120,891	2050,214
1	0,000	120,941	2051,825
1	0,000	120,992	2052,429
1	0,000	120,992	2053,436
1	0,000	121,042	2053,537
1	0,000	121,092	2053,940
1	0,000	121,092	2054,141
1	0,000	121,143	2053,033
1	0,000	121,193	2054,846
1	0,000	121,193	2055,551
1	0,000	121,243	2054,645
1	0,000	121,293	2056,760
1	0,000	121,293	2057,062
1	0,000	121,343	2057,565
1	0,000	121,393	2057,968
1	0,000	121,393	2057,162
1	0,000	121,443	2059,680
1	0,000	121,493	2060,284
1	0,000	121,493	2061,694
1	0,000	121,543	2060,587
1	0,000	121,593	2062,097
1	0,000	121,593	2062,198
1	0,000	121,645	2062,903
1	0,000	121,695	2063,507
1	0,000	121,695	2063,608
1	0,000	121,746	2065,823
1	0,000	121,796	2065,118
1	0,000	121,796	2066,125
1	0,000	121,846	2065,622
1	0,000	121,896	2067,435
1	0,000	121,896	2069,550
1	0,000	121,947	2070,255
1	0,000	121,996	2068,845
1	0,000	121,996	2070,758
1	0,000	122,046	2071,866
1	0,000	122,096	2069,650
1	0,000	122,096	2071,664
1	0,000	122,147	2072,269
1	0,000	122,197	2069,751
1	0,000	122,197	2071,967
1	0,000	122,247	2074,786
1	0,000	122,297	2072,672
1	0,000	122,297	2074,081
1	0,000	122,347	2075,189
1	0,000	122,397	2076,297
1	0,000	122,397	2076,096
1	0,000	122,447	2074,686
1	0,000	122,497	2077,808
1	0,000	122,497	2077,103
1	0,000	122,548	2078,412
1	0,000	122,598	2079,922
1	0,000	122,598	2078,513
1	0,000	122,648	2080,426
1	0,000	122,698	2080,426
1	0,000	122,698	2080,829
1	0,000	122,748	2080,325
1	0,000	122,798	2082,339
1	0,000	122,798	2083,044
1	0,000	122,849	2083,447
1	0,000	122,899	2083,951
1	0,000	122,899	2084,756
1	0,000	122,949	2084,756
1	0,000	122,999	2085,562
1	0,000	122,999	2086,569
1	0,000	123,050	2087,375
1	0,000	123,099	2088,785
1	0,000	123,099	2090,295
1	0,000	123,149	2089,893
1	0,000	123,199	2091,302
1	0,000	123,199	2091,302
1	0,000	123,249	2092,108
1	0,000	123,300	2090,497
1	0,000	123,300	2091,907
1	0,000	123,350	2092,612
1	0,000	123,399	2093,518
1	0,000	123,399	2093,719
1	0,000	123,450	2094,424
1	0,000	123,500	2094,727
1	0,000	123,500	2095,834
1	0,000	123,550	2097,144
1	0,000	123,600	2097,043
1	0,000	123,600	2097,144
1	0,000	123,651	2096,942
1	0,000	123,701	2099,561
1	0,000	123,701	2099,258
1	0,000	123,751	2100,266
1	0,000	123,801	2099,661
1	0,000	123,801	2100,366
1	0,000	123,852	2100,769
1	0,000	123,901	2101,978
1	0,000	123,901	2101,978
1	0,000	123,951	2103,488
1	0,000	124,001	2103,488
1	0,000	124,001	2103,387
1	0,000	124,052	2104,596
1	0,000	124,052	2105,704
1	0,000	124,102	2104,697
1	0,000	124,153	2106,610
1	0,000	124,153	2106,409
1	0,000	124,203	2110,437
1	0,000	124,253	2109,430
1	0,000	124,253	2109,933
1	0,000	124,303	2110,538
1	0,000	124,353	2110,840
1	0,000	124,353	2111,746
1	0,000	124,403	2111,041
1	0,000	124,453	2111,142
1	0,000	124,453	2112,048
1	0,000	124,503	2114,465
1	0,000	124,553	2112,250
1	0,000	124,553	2114,566
1	0,000	124,603	2114,264
1	0,000	124,653	2115,070
1	0,000	124,653	2116,077
1	0,000	124,703	2114,365
1	0,000	124,753	2116,077
1	0,000	124,753	2118,796
1	0,000	124,803	2117,990
1	0,000	124,853	2116,580
1	0,000	124,853	2118,695
1	0,000	124,903	2121,011
1	0,000	124,953	2121,313
1	0,000	124,953	2123,328
1	0,000	125,003	2122,824
1	0,000	125,053	2123,227
1	0,000	125,053	2122,119
1	0,000	125,103	2123,932
1	0,000	125,153	2124,838
1	0,000	125,153	2125,241
1	0,000	125,204	2126,248
1	0,000	125,254	2125,845
1	0,000	125,254	2127,759
1	0,000	125,304	2126,550
1	0,000	125,354	2128,262
1	0,000	125,354	2129,572
1	0,000	125,405	2128,061
1	0,000	125,455	2130,478
1	0,000	125,455	2129,269
1	0,000	125,505	2131,787
1	0,000	125,555	2128,564
1	0,000	125,555	2130,981
1	0,000	125,604	2134,305
1	0,000	125,654	2135,815
1	0,000	125,654	2133,499
1	0,000	125,705	2134,406
1	0,000	125,755	2136,017
1	0,000	125,755	2136,722
1	0,000	125,805	2137,527
1	0,000	125,855	2137,729
1	0,000	125,855	2138,132
1	0,000	125,905	2136,319
1	0,000	125,956	2138,434
1	0,000	125,956	2140,247
1	0,000	126,006	2140,448
1	0,000	126,056	2140,952
1	0,000	126,056	2140,952
1	0,000	126,106	2142,764
1	0,000	126,156	2144,174
1	0,000	126,156	2142,462
1	0,000	126,206	2143,872
1	0,000	126,256	2145,886
1	0,000	126,256	2146,490
1	0,000	126,307	2146,390
1	0,000	126,356	2145,282
1	0,000	126,356	2148,605
1	0,000	126,406	2149,713
1	0,000	126,456	2148,605
1	0,000	126,456	2149,512
1	0,000	126,507	2151,022
1	0,000	126,557	2150,015
1	0,000	126,557	2151,224
1	0,000	126,606	2151,828
1	0,000	126,657	2152,734
1	0,000	126,657	2153,238
1	0,000	126,707	2154,446
1	0,000	126,758	2154,648
1	0,000	126,758	2155,252
1	0,000	126,808	2155,856
1	0,000	126,859	2156,461
1	0,000	126,859	2156,461
1	0,000	126,909	2156,360
1	0,000	126,960	2158,072
1	0,000	126,960	2158,173
1	0,000	127,010	2158,575
1	0,000	127,061	2159,683
1	0,000	127,061	2160,992
1	0,000	127,110	2162,100
1	0,000	127,161	2162,503
1	0,000	127,161	2162,906
1	0,000	127,211	2163,812
1	0,000	127,262	2163,309
1	0,000	127,262	2165,323
1	0,000	127,312	2165,424
1	0,000	127,362	2165,726
1	0,000	127,362	2166,229
1	0,000	127,412	2166,833
1	0,000	127,462	2167,538
1	0,000	127,462	2169,150
1	0,000	127,512	2167,438
1	0,000	127,562	2168,243
1	0,000	127,562	2171,869
1	0,000	127,612	2171,063
1	0,000	127,662	2172,070
1	0,000	127,662	2170,258
1	0,000	127,712	2171,063
1	0,000	127,763	2174,387
1	0,000	127,763	2174,588
1	0,000	127,813	2173,380
1	0,000	127,863	2174,789
1	0,000	127,863	2175,998
1	0,000	127,913	2175,192
1	0,000	127,963	2176,199
1	0,000	127,963	2177,408
1	0,000	128,014	2178,818
1	0,000	128,014	2179,019
1	0,000	128,064	2179,623
1	0,000	128,114	2181,134
1	0,000	128,165	2181,436
1	0,000	128,165	2182,947
1	0,000	128,215	2182,645
1	0,000	128,265	2183,148
1	0,000	128,265	2183,350
1	0,000	128,315	2183,752
1	0,000	128,365	2184,457
1	0,000	128,365	2184,659
1	0,000	128,415	2185,062
1	0,000	128,465	2186,874
1	0,000	128,465	2187,982
1	0,000	128,516	2188,385
1	0,000	128,565	2189,392
1	0,000	128,565	2189,594
1	0,000	128,616	2190,198
1	0,000	128,666	2190,903
1	0,000	128,666	2191,406
1	0,000	128,716	2192,715
1	0,000	128,716	2193,420
1	0,000	128,766	2193,924
1	0,000	128,816	2193,924
1	0,000	128,867	2194,730
1	0,000	128,867	2196,140
1	0,000	128,917	2196,442
1	0,000	128,917	2197,650
1	0,000	128,967	2198,557
1	0,000	129,017	2197,147
1	0,000	129,017	2199,866
1	0,000	129,068	2198,657
1	0,000	129,118	2198,657
1	0,000	129,118	2200,369
1	0,000	129,168	2201,678
1	0,000	129,218	2202,182
1	0,000	129,218	2201,779
1	0,000	129,269	2201,779
1	0,000	129,319	2203,995
1	0,000	129,319	2205,405
1	0,000	129,369	2203,995
1	0,000	129,419	2205,908
1	0,000	129,419	2206,210
1	0,000	129,468	2207,016
1	0,000	129,519	2207,721
1	0,000	129,519	2207,520
1	0,000	129,569	2209,030
1	0,000	129,619	2209,232
1	0,000	129,619	2210,742
1	0,000	129,670	2211,044
1	0,000	129,720	2209,534
1	0,000	129,720	2212,454
1	0,000	129,770	2213,361
1	0,000	129,821	2214,267
1	0,000	129,821	2214,972
1	0,000	129,871	2216,583
1	0,000	129,921	2216,583
1	0,000	129,921	2216,885
1	0,000	129,971	2217,490
1	0,000	130,021	2217,590
1	0,000	130,021	2217,087
1	0,000	130,072	2219,604
1	0,000	130,122	2218,698
1	0,000	130,122	2220,813
1	0,000	130,172	2220,410
1	0,000	130,222	2222,021
1	0,000	130,222	2221,619
1	0,000	130,272	2221,619
1	0,000	130,322	2222,424
1	0,000	130,322	2222,928
1	0,000	130,372	2225,244
1	0,000	130,422	2226,352
1	0,000	130,422	2226,151
1	0,000	130,472	2226,453
1	0,000	130,522	2228,265
1	0,000	130,522	2228,366
1	0,000	130,572	2230,179
1	0,000	130,623	2231,287
1	0,000	130,623	2231,790
1	0,000	130,673	2231,589
1	0,000	130,723	2235,617
1	0,000	130,723	2235,516
1	0,000	130,774	2233,603
1	0,000	130,824	2234,509
1	0,000	130,824	2236,322
1	0,000	130,873	2235,315
1	0,000	130,924	2236,322
1	0,000	130,924	2237,027
1	0,000	130,974	2235,818
1	0,000	131,024	2238,034
1	0,000	131,024	2240,451
1	0,000	131,074	2239,041
1	0,000	131,124	2240,753
1	0,000	131,124	2238,739
1	0,000	131,174	2242,062
1	0,000	131,225	2241,055
1	0,000	131,225	2243,069
1	0,000	131,275	2243,875
1	0,000	131,325	2244,479
1	0,000	131,325	2245,084
1	0,000	131,374	2244,580
1	0,000	131,425	2245,285
1	0,000	131,425	2247,198
1	0,000	131,475	2248,206
1	0,000	131,525	2247,400
1	0,000	131,525	2249,313
1	0,000	131,575	2250,320
1	0,000	131,625	2250,421
1	0,000	131,625	2251,328
1	0,000	131,676	2252,536
1	0,000	131,726	2252,737
1	0,000	131,726	2253,241
1	0,000	131,776	2250,824
1	0,000	131,826	2253,644
1	0,000	131,826	2256,061
1	0,000	131,876	2254,047
1	0,000	131,926	2254,047
1	0,000	131,926	2254,449
1	0,000	131,976	2252,335
1	0,000	132,027	2257,169
1	0,000	132,027	2259,888
1	0,000	132,077	2260,593
1	0,000	132,127	2260,492
1	0,000	132,127	2261,499
1	0,000	132,177	2264,218
1	0,000	132,227	2264,218
1	0,000	132,227	2263,916
1	0,000	132,278	2265,125
1	0,000	132,328	2265,225
1	0,000	132,328	2263,916
1	0,000	132,379	2266,434
1	0,000	132,428	2267,642
1	0,000	132,428	2268,549
1	0,000	132,478	2268,750
1	0,000	132,528	2269,254
1	0,000	132,528	2262,204
1	0,000	132,579	2268,347
1	0,000	132,629	2271,167
1	0,000	132,629	2272,980
1	0,000	132,679	2273,282
1	0,000	132,729	2273,080
1	0,000	132,729	2274,490
1	0,000	132,779	2275,095
1	0,000	132,829	2276,001
1	0,000	132,829	2276,907
1	0,000	132,879	2277,914
1	0,000	132,930	2278,317
1	0,000	132,930	2278,922
1	0,000	132,979	2278,217
1	0,000	133,030	2280,231
1	0,000	133,030	2281,439
1	0,000	133,079	2282,950
1	0,000	133,129	2281,540
1	0,000	133,129	2283,655
1	0,000	133,179	2284,259
1	0,000	133,179	2284,561
1	0,000	133,230	2285,971
1	0,000	133,280	2285,165
1	0,000	133,330	2288,086
1	0,000	133,330	2288,187
1	0,000	133,380	2289,395
1	0,000	133,430	2288,489
1	0,000	133,430	2289,697
1	0,000	133,480	2290,402
1	0,000	133,530	2292,819
1	0,000	133,530	2292,014
1	0,000	133,579	2293,021
1	0,000	133,630	2294,632
1	0,000	133,630	2294,128
1	0,000	133,680	2295,135
1	0,000	133,730	2295,236
1	0,000	133,730	2294,431
1	0,000	133,780	2295,337
1	0,000	133,780	2298,056
1	0,000	133,830	2298,660
1	0,000	133,881	2298,862
1	0,000	133,881	2300,372
1	0,000	133,931	2300,574
1	0,000	133,981	2301,581
1	0,000	133,981	2302,084
1	0,000	134,031	2302,487
1	0,000	134,081	2302,689
1	0,000	134,081	2305,508
1	0,000	134,131	2303,293
1	0,000	134,181	2304,099
1	0,000	134,181	2302,084
1	0,000	134,231	2305,307
1	0,000	134,281	2307,321
1	0,000	134,281	2308,228
1	0,000	134,331	2308,530
1	0,000	134,381	2310,242
1	0,000	134,381	2310,947
1	0,000	134,431	2311,652
1	0,000	134,482	2311,349
1	0,000	134,482	2311,349
1	0,000	134,532	2312,457
1	0,000	134,582	2310,846
1	0,000	134,582	2315,579
1	0,000	134,633	2315,579
1	0,000	134,683	2315,982
1	0,000	134,683	2318,600
1	0,000	134,733	2316,687
1	0,000	134,783	2317,493
1	0,000	134,783	2319,205
1	0,000	134,834	2320,615
1	0,000	134,884	2320,816
1	0,000	134,884	2321,823
1	0,000	134,934	2322,125
1	0,000	134,984	2322,931
1	0,000	134,984	2324,139
1	0,000	135,034	2324,240
1	0,000	135,085	2324,341
1	0,000	135,085	2324,643
1	0,000	135,135	2327,463
1	0,000	135,185	2326,456
1	0,000	135,185	2328,470
1	0,000	135,235	2328,168
1	0,000	135,285	2328,671
1	0,000	135,285	2330,484
1	0,000	135,336	2331,793
1	0,000	135,386	2331,491
1	0,000	135,386	2333,707
1	0,000	135,436	2332,800
1	0,000	135,486	2331,693
1	0,000	135,486	2332,095
1	0,000	135,536	2334,311
1	0,000	135,586	2336,728
1	0,000	135,586	2335,016
1	0,000	135,636	2337,433
1	0,000	135,687	2337,131
1	0,000	135,687	2338,943
1	0,000	135,737	2340,051
1	0,000	135,787	2340,756
1	0,000	135,787	2343,073
1	0,000	135,837	2341,965
1	0,000	135,887	2343,274
1	0,000	135,887	2343,173
1	0,000	135,937	2344,583
1	0,000	135,987	2345,087
1	0,000	135,987	2346,295
1	0,000	136,037	2345,490
1	0,000	136,088	2346,194
1	0,000	136,088	2346,497
1	0,000	136,138	2348,813
1	0,000	136,189	2350,424
1	0,000	136,189	2350,122
1	0,000	136,238	2350,122
1	0,000	136,288	2350,928
1	0,000	136,288	2353,143
1	0,000	136,338	2352,237
1	0,000	136,388	2353,546
1	0,000	136,388	2354,654
1	0,000	136,439	2355,762
1	0,000	136,489	2356,265
1	0,000	136,489	2356,567
1	0,000	136,539	2357,071
1	0,000	136,590	2358,884
1	0,000	136,590	2360,999
1	0,000	136,640	2359,387
1	0,000	136,690	2360,596
1	0,000	136,690	2362,006
1	0,000	136,740	2361,603
1	0,000	136,791	2363,214
1	0,000	136,791	2362,811
1	0,000	136,841	2364,725
1	0,000	136,891	2365,228
1	0,000	136,891	2367,746
1	0,000	136,942	2366,537
1	0,000	136,992	2367,041
1	0,000	136,992	2367,041
1	0,000	137,043	2367,947
1	0,000	137,092	2368,149
1	0,000	137,092	2369,559
1	0,000	137,143	2372,379
1	0,000	137,194	2371,573
1	0,000	137,194	2370,163
1	0,000	137,244	2373,889
1	0,000	137,294	2374,594
1	0,000	137,294	2374,594
1	0,000	137,344	2375,299
1	0,000	137,395	2376,910
1	0,000	137,395	2376,205
1	0,000	137,444	2379,831
1	0,000	137,494	2380,334
1	0,000	137,494	2380,334
1	0,000	137,545	2381,241
1	0,000	137,595	2380,133
1	0,000	137,595	2380,637
1	0,000	137,645	2382,349
1	0,000	137,695	2382,852
1	0,000	137,695	2386,880
1	0,000	137,745	2384,564
1	0,000	137,745	2383,456
1	0,000	137,795	2384,866
1	0,000	137,845	2387,082
1	0,000	137,845	2388,492
1	0,000	137,895	2386,981
1	0,000	137,945	2388,593
1	0,000	137,945	2388,895
1	0,000	137,996	2390,909
1	0,000	138,045	2391,714
1	0,000	138,045	2392,419
1	0,000	138,096	2393,829
1	0,000	138,146	2393,225
1	0,000	138,146	2396,045
1	0,000	138,196	2395,844
1	0,000	138,246	2394,937
1	0,000	138,246	2396,045
1	0,000	138,296	2397,153
1	0,000	138,347	2398,563
1	0,000	138,347	2398,563
1	0,000	138,397	2399,570
1	0,000	138,448	2400,677
1	0,000	138,448	2403,296
1	0,000	138,497	2404,001
1	0,000	138,548	2404,504
1	0,000	138,548	2404,001
1	0,000	138,598	2405,109
1	0,000	138,648	2405,914
1	0,000	138,648	2406,015
1	0,000	138,698	2407,224
1	0,000	138,749	2407,828
1	0,000	138,749	2407,626
1	0,000	138,799	2406,619
1	0,000	138,849	2409,137
1	0,000	138,849	2411,252
1	0,000	138,900	2411,755
1	0,000	138,949	2412,561
1	0,000	138,949	2413,065
1	0,000	139,000	2414,072
1	0,000	139,050	2413,770
1	0,000	139,050	2415,381
1	0,000	139,100	2416,388
1	0,000	139,150	2418,100
1	0,000	139,150	2417,395
1	0,000	139,201	2417,899
1	0,000	139,250	2420,215
1	0,000	139,250	2422,128
1	0,000	139,300	2421,826
1	0,000	139,350	2422,330
1	0,000	139,350	2423,639
1	0,000	139,401	2424,445
1	0,000	139,450	2423,337
1	0,000	139,450	2425,150
1	0,000	139,501	2426,157
1	0,000	139,551	2426,157
1	0,000	139,551	2427,567
1	0,000	139,601	2428,171
1	0,000	139,651	2428,876
1	0,000	139,651	2429,681
1	0,000	139,701	2430,386
1	0,000	139,751	2431,192
1	0,000	139,751	2431,998
1	0,000	139,802	2432,401
1	0,000	139,852	2434,113
1	0,000	139,852	2434,012
1	0,000	139,901	2435,019
1	0,000	139,940	2435,422
1	0,000	139,940	2436,026
1	0,000	139,970	2436,127
1	0,000	139,989	2436,429
1	0,000	139,989	2436,832
1	0,000	139,999	2436,932
