Col.n° Rot(deg) Lin(mm) CHR(um)
1	0,000	80,085	1334,381
1	0,000	80,085	1334,381
1	0,000	80,085	1334,482
1	0,000	80,130	1334,583
1	0,000	80,130	1334,482
1	0,000	80,130	1334,583
1	0,000	80,130	1334,683
1	0,000	80,130	1334,683
1	0,000	80,180	1334,784
1	0,000	80,180	1334,683
1	0,000	80,180	1334,885
1	0,000	80,180	1334,784
1	0,000	80,180	1334,985
1	0,000	80,230	1334,885
1	0,000	80,230	1334,985
1	0,000	80,230	1334,985
1	0,000	80,230	1334,985
1	0,000	80,230	1335,086
1	0,000	80,281	1335,187
1	0,000	80,281	1335,287
1	0,000	80,281	1335,287
1	0,000	80,281	1335,287
1	0,000	80,281	1335,388
1	0,000	80,331	1335,287
1	0,000	80,331	1335,388
1	0,000	80,331	1335,388
1	0,000	80,331	1335,489
1	0,000	80,331	1335,489
1	0,000	80,381	1335,489
1	0,000	80,381	1335,690
1	0,000	80,381	1335,590
1	0,000	80,381	1335,690
1	0,000	80,381	1335,690
1	0,000	80,431	1335,791
1	0,000	80,431	1335,690
1	0,000	80,431	1335,690
1	0,000	80,431	1335,791
1	0,000	80,431	1335,892
1	0,000	80,482	1335,992
1	0,000	80,482	1335,892
1	0,000	80,482	1335,992
1	0,000	80,482	1335,992
1	0,000	80,482	1336,093
1	0,000	80,531	1336,194
1	0,000	80,531	1336,194
1	0,000	80,531	1336,194
1	0,000	80,531	1336,194
1	0,000	80,531	1336,395
1	0,000	80,582	1336,295
1	0,000	80,582	1336,395
1	0,000	80,582	1336,395
1	0,000	80,582	1336,597
1	0,000	80,582	1336,697
1	0,000	80,632	1336,597
1	0,000	80,632	1336,697
1	0,000	80,632	1336,798
1	0,000	80,632	1336,697
1	0,000	80,632	1336,697
1	0,000	80,683	1336,798
1	0,000	80,683	1336,798
1	0,000	80,683	1336,899
1	0,000	80,683	1336,899
1	0,000	80,683	1336,899
1	0,000	80,732	1337,000
1	0,000	80,732	1337,000
1	0,000	80,732	1337,000
1	0,000	80,732	1337,201
1	0,000	80,732	1337,201
1	0,000	80,783	1337,201
1	0,000	80,783	1337,201
1	0,000	80,783	1337,302
1	0,000	80,783	1337,302
1	0,000	80,783	1337,503
1	0,000	80,834	1337,503
1	0,000	80,834	1337,503
1	0,000	80,834	1337,604
1	0,000	80,834	1337,604
1	0,000	80,834	1337,604
1	0,000	80,883	1337,704
1	0,000	80,883	1337,805
1	0,000	80,883	1337,704
1	0,000	80,883	1337,805
1	0,000	80,883	1337,805
1	0,000	80,933	1337,906
1	0,000	80,933	1338,007
1	0,000	80,933	1338,107
1	0,000	80,933	1338,107
1	0,000	80,933	1338,107
1	0,000	80,983	1338,107
1	0,000	80,983	1338,107
1	0,000	80,983	1338,208
1	0,000	80,983	1338,309
1	0,000	80,983	1338,409
1	0,000	81,033	1338,309
1	0,000	81,033	1338,409
1	0,000	81,033	1338,007
1	0,000	81,033	1338,409
1	0,000	81,033	1338,409
1	0,000	81,083	1338,409
1	0,000	81,083	1338,510
1	0,000	81,083	1338,510
1	0,000	81,083	1338,611
1	0,000	81,083	1338,812
1	0,000	81,133	1338,712
1	0,000	81,133	1338,712
1	0,000	81,133	1338,712
1	0,000	81,133	1338,812
1	0,000	81,133	1338,913
1	0,000	81,183	1338,913
1	0,000	81,183	1338,913
1	0,000	81,183	1339,014
1	0,000	81,183	1338,611
1	0,000	81,183	1339,114
1	0,000	81,233	1339,114
1	0,000	81,233	1339,114
1	0,000	81,233	1339,215
1	0,000	81,233	1339,316
1	0,000	81,233	1339,316
1	0,000	81,284	1339,316
1	0,000	81,284	1339,417
1	0,000	81,284	1339,417
1	0,000	81,284	1339,417
1	0,000	81,284	1339,517
1	0,000	81,333	1339,517
1	0,000	81,333	1339,517
1	0,000	81,333	1339,618
1	0,000	81,333	1339,719
1	0,000	81,333	1339,618
1	0,000	81,384	1339,719
1	0,000	81,384	1339,719
1	0,000	81,384	1339,819
1	0,000	81,384	1339,819
1	0,000	81,384	1339,920
1	0,000	81,434	1339,920
1	0,000	81,434	1339,920
1	0,000	81,434	1340,021
1	0,000	81,434	1340,121
1	0,000	81,434	1340,021
1	0,000	81,484	1340,323
1	0,000	81,484	1340,424
1	0,000	81,484	1340,424
1	0,000	81,484	1339,920
1	0,000	81,484	1340,424
1	0,000	81,533	1340,424
1	0,000	81,533	1340,524
1	0,000	81,533	1340,524
1	0,000	81,533	1340,625
1	0,000	81,533	1340,524
1	0,000	81,584	1340,726
1	0,000	81,584	1340,726
1	0,000	81,584	1340,726
1	0,000	81,584	1340,726
1	0,000	81,584	1340,826
1	0,000	81,633	1340,927
1	0,000	81,633	1340,826
1	0,000	81,633	1341,028
1	0,000	81,633	1340,927
1	0,000	81,633	1341,129
1	0,000	81,684	1341,229
1	0,000	81,684	1341,129
1	0,000	81,684	1341,229
1	0,000	81,684	1341,229
1	0,000	81,684	1341,330
1	0,000	81,734	1341,129
1	0,000	81,734	1341,229
1	0,000	81,734	1341,531
1	0,000	81,734	1341,531
1	0,000	81,734	1341,531
1	0,000	81,783	1341,531
1	0,000	81,783	1341,733
1	0,000	81,783	1341,733
1	0,000	81,783	1341,531
1	0,000	81,783	1341,733
1	0,000	81,834	1341,733
1	0,000	81,834	1341,833
1	0,000	81,834	1341,833
1	0,000	81,834	1341,833
1	0,000	81,834	1341,934
1	0,000	81,884	1342,035
1	0,000	81,884	1342,136
1	0,000	81,884	1342,136
1	0,000	81,884	1342,136
1	0,000	81,884	1342,136
1	0,000	81,934	1342,236
1	0,000	81,934	1342,136
1	0,000	81,934	1342,236
1	0,000	81,934	1342,337
1	0,000	81,934	1342,337
1	0,000	81,984	1342,438
1	0,000	81,984	1342,438
1	0,000	81,984	1342,438
1	0,000	81,984	1342,639
1	0,000	81,984	1342,639
1	0,000	82,034	1342,639
1	0,000	82,034	1342,740
1	0,000	82,034	1342,740
1	0,000	82,034	1342,740
1	0,000	82,034	1342,740
1	0,000	82,084	1342,841
1	0,000	82,084	1342,740
1	0,000	82,084	1342,941
1	0,000	82,084	1343,042
1	0,000	82,084	1343,042
1	0,000	82,134	1343,042
1	0,000	82,134	1343,042
1	0,000	82,134	1343,143
1	0,000	82,134	1343,243
1	0,000	82,134	1343,344
1	0,000	82,184	1343,344
1	0,000	82,184	1343,344
1	0,000	82,184	1343,445
1	0,000	82,184	1343,445
1	0,000	82,184	1343,546
1	0,000	82,234	1343,546
1	0,000	82,234	1343,646
1	0,000	82,234	1343,646
1	0,000	82,234	1343,747
1	0,000	82,234	1343,747
1	0,000	82,284	1343,445
1	0,000	82,284	1343,948
1	0,000	82,284	1343,948
1	0,000	82,284	1343,948
1	0,000	82,284	1343,948
1	0,000	82,334	1344,049
1	0,000	82,334	1344,150
1	0,000	82,334	1343,848
1	0,000	82,334	1344,150
1	0,000	82,334	1344,250
1	0,000	82,384	1344,351
1	0,000	82,384	1344,452
1	0,000	82,384	1344,553
1	0,000	82,384	1344,452
1	0,000	82,384	1344,351
1	0,000	82,434	1344,553
1	0,000	82,434	1344,553
1	0,000	82,434	1344,553
1	0,000	82,434	1344,653
1	0,000	82,434	1344,754
1	0,000	82,484	1344,754
1	0,000	82,484	1344,855
1	0,000	82,484	1344,855
1	0,000	82,484	1344,855
1	0,000	82,484	1344,955
1	0,000	82,534	1344,955
1	0,000	82,534	1344,955
1	0,000	82,534	1345,157
1	0,000	82,534	1345,056
1	0,000	82,534	1345,157
1	0,000	82,534	1345,258
1	0,000	82,585	1345,157
1	0,000	82,585	1345,358
1	0,000	82,585	1345,358
1	0,000	82,585	1345,459
1	0,000	82,585	1345,459
1	0,000	82,635	1345,560
1	0,000	82,635	1345,258
1	0,000	82,635	1345,761
1	0,000	82,635	1345,862
1	0,000	82,635	1345,761
1	0,000	82,685	1345,862
1	0,000	82,685	1345,761
1	0,000	82,685	1345,862
1	0,000	82,685	1345,862
1	0,000	82,685	1345,963
1	0,000	82,735	1346,063
1	0,000	82,735	1346,063
1	0,000	82,735	1346,164
1	0,000	82,735	1346,164
1	0,000	82,735	1346,164
1	0,000	82,785	1346,265
1	0,000	82,785	1346,164
1	0,000	82,785	1346,365
1	0,000	82,785	1346,466
1	0,000	82,785	1346,466
1	0,000	82,835	1346,567
1	0,000	82,835	1346,567
1	0,000	82,835	1346,667
1	0,000	82,835	1346,667
1	0,000	82,835	1346,768
1	0,000	82,885	1346,869
1	0,000	82,885	1346,970
1	0,000	82,885	1346,970
1	0,000	82,885	1346,970
1	0,000	82,885	1346,970
1	0,000	82,935	1347,070
1	0,000	82,935	1347,070
1	0,000	82,935	1346,970
1	0,000	82,935	1347,372
1	0,000	82,935	1347,171
1	0,000	82,985	1347,272
1	0,000	82,985	1347,372
1	0,000	82,985	1347,372
1	0,000	82,985	1347,372
1	0,000	82,985	1347,473
1	0,000	83,035	1347,473
1	0,000	83,035	1347,574
1	0,000	83,035	1347,675
1	0,000	83,035	1347,775
1	0,000	83,035	1347,775
1	0,000	83,085	1347,876
1	0,000	83,085	1347,775
1	0,000	83,085	1347,775
1	0,000	83,085	1347,775
1	0,000	83,085	1347,876
1	0,000	83,135	1347,977
1	0,000	83,135	1348,077
1	0,000	83,135	1348,077
1	0,000	83,135	1347,977
1	0,000	83,135	1348,178
1	0,000	83,185	1348,380
1	0,000	83,185	1348,380
1	0,000	83,185	1348,279
1	0,000	83,185	1348,480
1	0,000	83,185	1348,480
1	0,000	83,235	1348,581
1	0,000	83,235	1348,480
1	0,000	83,235	1348,682
1	0,000	83,235	1348,581
1	0,000	83,235	1348,782
1	0,000	83,285	1348,782
1	0,000	83,285	1348,782
1	0,000	83,285	1348,984
1	0,000	83,285	1348,984
1	0,000	83,285	1349,084
1	0,000	83,335	1348,782
1	0,000	83,335	1349,286
1	0,000	83,335	1349,084
1	0,000	83,335	1348,883
1	0,000	83,335	1349,185
1	0,000	83,385	1349,286
1	0,000	83,385	1349,387
1	0,000	83,385	1349,286
1	0,000	83,385	1349,487
1	0,000	83,385	1349,588
1	0,000	83,435	1349,487
1	0,000	83,435	1349,588
1	0,000	83,435	1349,588
1	0,000	83,435	1349,689
1	0,000	83,435	1349,789
1	0,000	83,485	1349,789
1	0,000	83,485	1349,890
1	0,000	83,485	1349,890
1	0,000	83,485	1349,991
1	0,000	83,485	1349,991
1	0,000	83,535	1350,092
1	0,000	83,535	1350,293
1	0,000	83,535	1350,293
1	0,000	83,535	1350,394
1	0,000	83,535	1350,293
1	0,000	83,585	1350,293
1	0,000	83,585	1350,293
1	0,000	83,585	1350,394
1	0,000	83,585	1350,494
1	0,000	83,585	1350,494
1	0,000	83,635	1350,595
1	0,000	83,635	1350,595
1	0,000	83,635	1350,696
1	0,000	83,635	1350,696
1	0,000	83,635	1350,696
1	0,000	83,685	1350,797
1	0,000	83,685	1350,897
1	0,000	83,685	1350,897
1	0,000	83,685	1350,897
1	0,000	83,685	1351,199
1	0,000	83,735	1351,099
1	0,000	83,735	1351,199
1	0,000	83,735	1351,300
1	0,000	83,735	1351,401
1	0,000	83,735	1351,300
1	0,000	83,785	1351,401
1	0,000	83,785	1351,501
1	0,000	83,785	1351,501
1	0,000	83,785	1351,703
1	0,000	83,785	1351,501
1	0,000	83,835	1351,501
1	0,000	83,835	1351,703
1	0,000	83,835	1351,804
1	0,000	83,835	1351,904
1	0,000	83,835	1351,804
1	0,000	83,886	1351,501
1	0,000	83,886	1351,904
1	0,000	83,886	1351,904
1	0,000	83,886	1352,005
1	0,000	83,886	1352,106
1	0,000	83,937	1352,307
1	0,000	83,937	1352,307
1	0,000	83,937	1352,206
1	0,000	83,937	1352,408
1	0,000	83,937	1352,307
1	0,000	83,986	1352,307
1	0,000	83,986	1352,509
1	0,000	83,986	1351,904
1	0,000	83,986	1352,710
1	0,000	83,986	1352,710
1	0,000	84,037	1352,811
1	0,000	84,037	1352,710
1	0,000	84,037	1352,811
1	0,000	84,037	1352,911
1	0,000	84,037	1353,012
1	0,000	84,087	1353,012
1	0,000	84,087	1353,113
1	0,000	84,087	1353,214
1	0,000	84,087	1353,214
1	0,000	84,087	1353,314
1	0,000	84,137	1353,314
1	0,000	84,137	1353,314
1	0,000	84,137	1353,415
1	0,000	84,137	1353,415
1	0,000	84,137	1353,516
1	0,000	84,187	1353,516
1	0,000	84,187	1353,616
1	0,000	84,187	1353,717
1	0,000	84,187	1353,717
1	0,000	84,187	1353,616
1	0,000	84,237	1353,616
1	0,000	84,237	1353,818
1	0,000	84,237	1354,019
1	0,000	84,237	1354,019
1	0,000	84,237	1354,120
1	0,000	84,287	1354,221
1	0,000	84,287	1354,221
1	0,000	84,287	1353,717
1	0,000	84,287	1354,422
1	0,000	84,287	1354,321
1	0,000	84,337	1354,422
1	0,000	84,337	1354,422
1	0,000	84,337	1354,422
1	0,000	84,337	1354,523
1	0,000	84,337	1354,623
1	0,000	84,387	1354,623
1	0,000	84,387	1354,724
1	0,000	84,387	1354,724
1	0,000	84,387	1354,926
1	0,000	84,387	1354,926
1	0,000	84,437	1354,825
1	0,000	84,437	1354,926
1	0,000	84,437	1355,026
1	0,000	84,437	1355,026
1	0,000	84,437	1355,127
1	0,000	84,487	1355,228
1	0,000	84,487	1355,228
1	0,000	84,487	1355,328
1	0,000	84,487	1355,328
1	0,000	84,487	1355,328
1	0,000	84,537	1355,429
1	0,000	84,537	1355,530
1	0,000	84,537	1355,530
1	0,000	84,537	1355,630
1	0,000	84,537	1355,731
1	0,000	84,588	1355,832
1	0,000	84,588	1355,832
1	0,000	84,588	1355,933
1	0,000	84,588	1356,033
1	0,000	84,588	1356,033
1	0,000	84,638	1356,033
1	0,000	84,638	1356,134
1	0,000	84,638	1356,134
1	0,000	84,638	1355,933
1	0,000	84,638	1356,436
1	0,000	84,688	1356,335
1	0,000	84,688	1356,335
1	0,000	84,688	1356,436
1	0,000	84,688	1356,537
1	0,000	84,688	1356,537
1	0,000	84,738	1356,537
1	0,000	84,738	1356,537
1	0,000	84,738	1356,738
1	0,000	84,738	1356,738
1	0,000	84,738	1356,839
1	0,000	84,788	1356,940
1	0,000	84,788	1356,940
1	0,000	84,788	1357,040
1	0,000	84,788	1357,040
1	0,000	84,788	1357,141
1	0,000	84,838	1357,141
1	0,000	84,838	1357,141
1	0,000	84,838	1357,343
1	0,000	84,838	1357,343
1	0,000	84,838	1357,443
1	0,000	84,888	1357,343
1	0,000	84,888	1357,645
1	0,000	84,888	1357,443
1	0,000	84,888	1357,645
1	0,000	84,888	1357,745
1	0,000	84,938	1357,645
1	0,000	84,938	1357,846
1	0,000	84,938	1357,846
1	0,000	84,938	1357,947
1	0,000	84,938	1357,947
1	0,000	84,988	1357,645
1	0,000	84,988	1358,249
1	0,000	84,988	1358,249
1	0,000	84,988	1358,249
1	0,000	84,988	1358,249
1	0,000	85,038	1358,350
1	0,000	85,038	1358,450
1	0,000	85,038	1358,450
1	0,000	85,038	1358,551
1	0,000	85,038	1358,551
1	0,000	85,088	1358,652
1	0,000	85,088	1358,652
1	0,000	85,088	1358,752
1	0,000	85,088	1358,752
1	0,000	85,088	1358,954
1	0,000	85,138	1358,853
1	0,000	85,138	1358,954
1	0,000	85,138	1358,954
1	0,000	85,138	1358,853
1	0,000	85,138	1359,256
1	0,000	85,189	1359,055
1	0,000	85,189	1359,256
1	0,000	85,189	1359,357
1	0,000	85,189	1359,357
1	0,000	85,189	1359,357
1	0,000	85,239	1359,457
1	0,000	85,239	1359,457
1	0,000	85,239	1359,558
1	0,000	85,239	1359,659
1	0,000	85,239	1359,760
1	0,000	85,289	1359,760
1	0,000	85,289	1359,860
1	0,000	85,289	1359,860
1	0,000	85,289	1359,961
1	0,000	85,289	1360,062
1	0,000	85,339	1360,062
1	0,000	85,339	1360,162
1	0,000	85,339	1360,162
1	0,000	85,339	1360,263
1	0,000	85,339	1360,263
1	0,000	85,389	1360,364
1	0,000	85,389	1360,565
1	0,000	85,389	1360,364
1	0,000	85,389	1360,565
1	0,000	85,389	1360,565
1	0,000	85,440	1360,565
1	0,000	85,440	1360,666
1	0,000	85,440	1360,767
1	0,000	85,440	1360,767
1	0,000	85,440	1360,867
1	0,000	85,490	1361,069
1	0,000	85,490	1360,968
1	0,000	85,490	1360,968
1	0,000	85,490	1361,169
1	0,000	85,490	1361,169
1	0,000	85,540	1361,270
1	0,000	85,540	1361,270
1	0,000	85,540	1361,371
1	0,000	85,540	1361,371
1	0,000	85,540	1361,472
1	0,000	85,590	1361,270
1	0,000	85,590	1361,673
1	0,000	85,590	1361,572
1	0,000	85,590	1361,673
1	0,000	85,590	1361,774
1	0,000	85,640	1361,874
1	0,000	85,640	1361,874
1	0,000	85,640	1361,874
1	0,000	85,640	1361,975
1	0,000	85,640	1361,975
1	0,000	85,690	1362,076
1	0,000	85,690	1362,076
1	0,000	85,690	1362,277
1	0,000	85,690	1362,177
1	0,000	85,690	1362,277
1	0,000	85,740	1362,378
1	0,000	85,740	1362,680
1	0,000	85,740	1362,479
1	0,000	85,740	1362,579
1	0,000	85,740	1362,680
1	0,000	85,790	1362,781
1	0,000	85,790	1362,881
1	0,000	85,790	1362,680
1	0,000	85,790	1362,982
1	0,000	85,790	1362,982
1	0,000	85,841	1362,982
1	0,000	85,841	1362,982
1	0,000	85,841	1363,184
1	0,000	85,841	1363,083
1	0,000	85,841	1363,284
1	0,000	85,891	1363,284
1	0,000	85,891	1363,385
1	0,000	85,891	1363,486
1	0,000	85,891	1363,486
1	0,000	85,891	1363,586
1	0,000	85,941	1363,586
1	0,000	85,941	1363,687
1	0,000	85,941	1363,687
1	0,000	85,941	1363,788
1	0,000	85,941	1363,788
1	0,000	85,991	1363,889
1	0,000	85,991	1363,989
1	0,000	85,991	1364,090
1	0,000	85,991	1364,090
1	0,000	85,991	1364,090
1	0,000	86,042	1364,291
1	0,000	86,042	1364,191
1	0,000	86,042	1364,291
1	0,000	86,042	1364,392
1	0,000	86,042	1364,392
1	0,000	86,091	1364,493
1	0,000	86,091	1364,594
1	0,000	86,091	1364,594
1	0,000	86,091	1364,694
1	0,000	86,091	1364,694
1	0,000	86,141	1364,896
1	0,000	86,141	1364,896
1	0,000	86,141	1364,996
1	0,000	86,141	1365,097
1	0,000	86,141	1365,097
1	0,000	86,191	1365,298
1	0,000	86,191	1365,198
1	0,000	86,191	1365,198
1	0,000	86,191	1365,198
1	0,000	86,191	1365,298
1	0,000	86,241	1365,399
1	0,000	86,241	1365,399
1	0,000	86,241	1365,500
1	0,000	86,241	1365,500
1	0,000	86,241	1365,701
1	0,000	86,291	1365,701
1	0,000	86,291	1365,701
1	0,000	86,291	1365,802
1	0,000	86,291	1365,903
1	0,000	86,291	1365,802
1	0,000	86,342	1366,003
1	0,000	86,342	1366,104
1	0,000	86,342	1366,003
1	0,000	86,342	1365,903
1	0,000	86,342	1366,406
1	0,000	86,392	1366,406
1	0,000	86,392	1366,306
1	0,000	86,392	1366,406
1	0,000	86,392	1366,608
1	0,000	86,392	1366,507
1	0,000	86,442	1366,608
1	0,000	86,442	1366,708
1	0,000	86,442	1366,708
1	0,000	86,442	1366,809
1	0,000	86,442	1366,809
1	0,000	86,492	1366,910
1	0,000	86,492	1367,010
1	0,000	86,492	1367,010
1	0,000	86,492	1367,111
1	0,000	86,492	1367,111
1	0,000	86,542	1367,212
1	0,000	86,542	1367,212
1	0,000	86,542	1367,313
1	0,000	86,542	1367,413
1	0,000	86,542	1367,514
1	0,000	86,592	1367,514
1	0,000	86,592	1367,615
1	0,000	86,592	1367,715
1	0,000	86,592	1367,715
1	0,000	86,592	1367,715
1	0,000	86,642	1367,111
1	0,000	86,642	1367,111
1	0,000	86,642	1367,514
1	0,000	86,642	1367,413
1	0,000	86,642	1368,018
1	0,000	86,692	1368,320
1	0,000	86,692	1368,219
1	0,000	86,692	1368,320
1	0,000	86,692	1368,320
1	0,000	86,692	1368,320
1	0,000	86,742	1368,521
1	0,000	86,742	1368,521
1	0,000	86,742	1368,622
1	0,000	86,742	1368,622
1	0,000	86,742	1368,622
1	0,000	86,742	1368,823
1	0,000	86,792	1368,823
1	0,000	86,792	1368,924
1	0,000	86,792	1368,924
1	0,000	86,792	1369,025
1	0,000	86,843	1369,125
1	0,000	86,843	1369,125
1	0,000	86,843	1369,226
1	0,000	86,843	1369,327
1	0,000	86,843	1369,427
1	0,000	86,843	1369,528
1	0,000	86,893	1369,427
1	0,000	86,893	1369,427
1	0,000	86,893	1369,528
1	0,000	86,893	1369,629
1	0,000	86,893	1369,629
1	0,000	86,943	1369,730
1	0,000	86,943	1369,830
1	0,000	86,943	1369,830
1	0,000	86,943	1369,931
1	0,000	86,943	1370,032
1	0,000	86,994	1370,032
1	0,000	86,994	1370,132
1	0,000	86,994	1370,132
1	0,000	86,994	1370,233
1	0,000	86,994	1370,435
1	0,000	87,044	1370,435
1	0,000	87,044	1370,435
1	0,000	87,044	1370,535
1	0,000	87,044	1370,535
1	0,000	87,044	1370,636
1	0,000	87,095	1370,737
1	0,000	87,095	1370,737
1	0,000	87,095	1370,837
1	0,000	87,095	1370,837
1	0,000	87,095	1370,938
1	0,000	87,144	1370,938
1	0,000	87,144	1371,140
1	0,000	87,144	1371,140
1	0,000	87,144	1371,240
1	0,000	87,144	1370,837
1	0,000	87,194	1371,442
1	0,000	87,194	1371,442
1	0,000	87,194	1371,542
1	0,000	87,194	1371,542
1	0,000	87,194	1371,643
1	0,000	87,245	1371,844
1	0,000	87,245	1371,744
1	0,000	87,245	1371,844
1	0,000	87,245	1371,945
1	0,000	87,245	1372,046
1	0,000	87,295	1372,046
1	0,000	87,295	1372,046
1	0,000	87,295	1372,147
1	0,000	87,295	1372,147
1	0,000	87,295	1372,247
1	0,000	87,345	1372,348
1	0,000	87,345	1372,348
1	0,000	87,345	1372,348
1	0,000	87,345	1372,549
1	0,000	87,345	1372,549
1	0,000	87,395	1372,549
1	0,000	87,395	1372,852
1	0,000	87,395	1372,751
1	0,000	87,395	1372,852
1	0,000	87,395	1372,952
1	0,000	87,445	1372,952
1	0,000	87,445	1372,952
1	0,000	87,445	1373,154
1	0,000	87,445	1373,154
1	0,000	87,445	1373,254
1	0,000	87,495	1373,355
1	0,000	87,495	1373,254
1	0,000	87,495	1373,456
1	0,000	87,495	1373,657
1	0,000	87,495	1373,657
1	0,000	87,545	1373,355
1	0,000	87,545	1373,657
1	0,000	87,545	1373,859
1	0,000	87,545	1373,859
1	0,000	87,545	1373,959
1	0,000	87,595	1373,959
1	0,000	87,595	1374,060
1	0,000	87,595	1374,060
1	0,000	87,595	1374,060
1	0,000	87,595	1374,261
1	0,000	87,646	1374,161
1	0,000	87,646	1374,362
1	0,000	87,646	1374,463
1	0,000	87,646	1374,564
1	0,000	87,646	1374,564
1	0,000	87,696	1374,564
1	0,000	87,696	1374,765
1	0,000	87,696	1374,866
1	0,000	87,696	1374,866
1	0,000	87,696	1374,966
1	0,000	87,747	1374,966
1	0,000	87,747	1374,966
1	0,000	87,747	1375,168
1	0,000	87,747	1375,168
1	0,000	87,747	1375,369
1	0,000	87,796	1375,269
1	0,000	87,796	1375,269
1	0,000	87,796	1375,369
1	0,000	87,796	1375,772
1	0,000	87,796	1375,571
1	0,000	87,847	1375,571
1	0,000	87,847	1375,671
1	0,000	87,847	1375,671
1	0,000	87,847	1375,873
1	0,000	87,847	1375,873
1	0,000	87,897	1375,974
1	0,000	87,897	1375,974
1	0,000	87,897	1376,074
1	0,000	87,897	1376,175
1	0,000	87,897	1376,276
1	0,000	87,947	1376,276
1	0,000	87,947	1376,276
1	0,000	87,947	1376,276
1	0,000	87,947	1376,376
1	0,000	87,947	1376,376
1	0,000	87,998	1376,578
1	0,000	87,998	1376,678
1	0,000	87,998	1376,779
1	0,000	87,998	1376,880
1	0,000	87,998	1376,880
1	0,000	88,048	1376,880
1	0,000	88,048	1377,081
1	0,000	88,048	1377,081
1	0,000	88,048	1377,182
1	0,000	88,048	1377,283
1	0,000	88,098	1377,383
1	0,000	88,098	1377,383
1	0,000	88,098	1377,383
1	0,000	88,098	1377,484
1	0,000	88,098	1377,585
1	0,000	88,148	1377,686
1	0,000	88,148	1377,786
1	0,000	88,148	1377,887
1	0,000	88,148	1377,887
1	0,000	88,148	1377,988
1	0,000	88,198	1377,988
1	0,000	88,198	1377,988
1	0,000	88,198	1378,189
1	0,000	88,198	1378,189
1	0,000	88,198	1378,290
1	0,000	88,248	1378,391
1	0,000	88,248	1378,491
1	0,000	88,248	1378,491
1	0,000	88,248	1378,592
1	0,000	88,248	1378,693
1	0,000	88,298	1378,793
1	0,000	88,298	1378,793
1	0,000	88,298	1378,894
1	0,000	88,298	1378,894
1	0,000	88,298	1378,995
1	0,000	88,348	1378,995
1	0,000	88,348	1379,095
1	0,000	88,348	1379,398
1	0,000	88,348	1379,196
1	0,000	88,348	1379,498
1	0,000	88,398	1379,398
1	0,000	88,398	1379,398
1	0,000	88,398	1379,800
1	0,000	88,398	1379,700
1	0,000	88,398	1379,700
1	0,000	88,448	1379,800
1	0,000	88,448	1379,800
1	0,000	88,448	1379,800
1	0,000	88,448	1380,103
1	0,000	88,448	1380,103
1	0,000	88,498	1380,103
1	0,000	88,498	1380,103
1	0,000	88,498	1380,304
1	0,000	88,498	1380,304
1	0,000	88,498	1380,405
1	0,000	88,549	1380,405
1	0,000	88,549	1380,505
1	0,000	88,549	1380,606
1	0,000	88,549	1380,807
1	0,000	88,549	1380,807
1	0,000	88,599	1380,807
1	0,000	88,599	1380,807
1	0,000	88,599	1381,009
1	0,000	88,599	1381,009
1	0,000	88,599	1381,110
1	0,000	88,648	1381,110
1	0,000	88,648	1381,210
1	0,000	88,648	1381,311
1	0,000	88,648	1381,311
1	0,000	88,648	1381,210
1	0,000	88,698	1381,412
1	0,000	88,698	1381,512
1	0,000	88,698	1381,613
1	0,000	88,698	1381,714
1	0,000	88,698	1381,815
1	0,000	88,748	1381,815
1	0,000	88,748	1381,915
1	0,000	88,748	1381,915
1	0,000	88,748	1382,016
1	0,000	88,748	1382,117
1	0,000	88,799	1382,117
1	0,000	88,799	1382,217
1	0,000	88,799	1382,419
1	0,000	88,799	1382,419
1	0,000	88,799	1382,419
1	0,000	88,848	1382,520
1	0,000	88,848	1382,620
1	0,000	88,848	1382,520
1	0,000	88,848	1382,620
1	0,000	88,848	1382,721
1	0,000	88,899	1382,822
1	0,000	88,899	1383,023
1	0,000	88,899	1383,023
1	0,000	88,899	1383,124
1	0,000	88,899	1383,124
1	0,000	88,948	1383,224
1	0,000	88,948	1383,325
1	0,000	88,948	1383,426
1	0,000	88,948	1383,426
1	0,000	88,948	1383,527
1	0,000	88,948	1383,728
1	0,000	88,999	1383,728
1	0,000	88,999	1383,728
1	0,000	88,999	1383,929
1	0,000	88,999	1383,929
1	0,000	89,049	1383,929
1	0,000	89,049	1384,131
1	0,000	89,049	1384,332
1	0,000	89,049	1384,232
1	0,000	89,049	1384,232
1	0,000	89,099	1384,332
1	0,000	89,099	1384,332
1	0,000	89,099	1384,534
1	0,000	89,099	1384,534
1	0,000	89,099	1384,634
1	0,000	89,149	1384,634
1	0,000	89,149	1384,735
1	0,000	89,149	1384,836
1	0,000	89,149	1384,836
1	0,000	89,149	1384,937
1	0,000	89,199	1385,037
1	0,000	89,199	1385,138
1	0,000	89,199	1385,239
1	0,000	89,199	1385,339
1	0,000	89,199	1385,339
1	0,000	89,249	1385,339
1	0,000	89,249	1385,541
1	0,000	89,249	1385,641
1	0,000	89,249	1385,742
1	0,000	89,249	1385,742
1	0,000	89,298	1385,742
1	0,000	89,298	1385,843
1	0,000	89,298	1385,944
1	0,000	89,298	1386,044
1	0,000	89,298	1386,145
1	0,000	89,348	1386,145
1	0,000	89,348	1386,246
1	0,000	89,348	1386,246
1	0,000	89,348	1386,447
1	0,000	89,348	1386,548
1	0,000	89,348	1386,649
1	0,000	89,399	1386,850
1	0,000	89,399	1386,649
1	0,000	89,399	1386,649
1	0,000	89,399	1386,447
1	0,000	89,449	1386,951
1	0,000	89,449	1386,951
1	0,000	89,449	1387,051
1	0,000	89,449	1387,152
1	0,000	89,449	1387,152
1	0,000	89,498	1387,253
1	0,000	89,498	1387,354
1	0,000	89,498	1387,454
1	0,000	89,498	1387,555
1	0,000	89,498	1387,555
1	0,000	89,548	1387,656
1	0,000	89,548	1387,656
1	0,000	89,548	1387,756
1	0,000	89,548	1387,756
1	0,000	89,548	1387,857
1	0,000	89,599	1387,958
1	0,000	89,599	1388,260
1	0,000	89,599	1388,159
1	0,000	89,599	1388,159
1	0,000	89,599	1388,260
1	0,000	89,649	1388,260
1	0,000	89,649	1388,461
1	0,000	89,649	1388,562
1	0,000	89,649	1388,361
1	0,000	89,649	1388,562
1	0,000	89,699	1388,763
1	0,000	89,699	1388,763
1	0,000	89,699	1388,763
1	0,000	89,699	1389,166
1	0,000	89,699	1389,166
1	0,000	89,748	1389,166
1	0,000	89,748	1389,166
1	0,000	89,748	1389,267
1	0,000	89,748	1389,368
1	0,000	89,748	1389,468
1	0,000	89,800	1389,569
1	0,000	89,800	1389,569
1	0,000	89,800	1389,670
1	0,000	89,800	1389,670
1	0,000	89,800	1389,871
1	0,000	89,850	1389,972
1	0,000	89,850	1389,871
1	0,000	89,850	1390,073
1	0,000	89,850	1390,073
1	0,000	89,850	1390,173
1	0,000	89,899	1390,375
1	0,000	89,899	1390,375
1	0,000	89,899	1390,475
1	0,000	89,899	1390,475
1	0,000	89,899	1390,576
1	0,000	89,949	1390,576
1	0,000	89,949	1390,576
1	0,000	89,949	1390,677
1	0,000	89,949	1390,475
1	0,000	89,949	1390,878
1	0,000	90,000	1390,979
1	0,000	90,000	1391,080
1	0,000	90,000	1391,180
1	0,000	90,000	1391,281
1	0,000	90,000	1391,382
1	0,000	90,049	1391,483
1	0,000	90,049	1391,382
1	0,000	90,049	1391,382
1	0,000	90,049	1391,583
1	0,000	90,049	1391,684
1	0,000	90,100	1391,583
1	0,000	90,100	1391,885
1	0,000	90,100	1391,885
1	0,000	90,100	1391,986
1	0,000	90,100	1391,986
1	0,000	90,149	1392,187
1	0,000	90,149	1392,288
1	0,000	90,149	1392,288
1	0,000	90,149	1392,389
1	0,000	90,149	1392,389
1	0,000	90,199	1392,590
1	0,000	90,199	1392,590
1	0,000	90,199	1392,691
1	0,000	90,199	1392,590
1	0,000	90,199	1392,892
1	0,000	90,250	1392,892
1	0,000	90,250	1392,892
1	0,000	90,250	1393,094
1	0,000	90,250	1393,094
1	0,000	90,250	1393,195
1	0,000	90,300	1393,195
1	0,000	90,300	1393,295
1	0,000	90,300	1393,396
1	0,000	90,300	1393,396
1	0,000	90,300	1393,396
1	0,000	90,350	1393,698
1	0,000	90,350	1393,698
1	0,000	90,350	1393,799
1	0,000	90,350	1393,900
1	0,000	90,350	1394,000
1	0,000	90,400	1394,000
1	0,000	90,400	1394,101
1	0,000	90,400	1394,101
1	0,000	90,400	1394,101
1	0,000	90,400	1394,302
1	0,000	90,451	1394,302
1	0,000	90,451	1394,504
1	0,000	90,451	1394,504
1	0,000	90,451	1394,604
1	0,000	90,451	1394,705
1	0,000	90,501	1394,806
1	0,000	90,501	1394,806
1	0,000	90,501	1394,907
1	0,000	90,501	1395,007
1	0,000	90,501	1395,108
1	0,000	90,501	1395,209
1	0,000	90,551	1395,209
1	0,000	90,551	1395,309
1	0,000	90,551	1395,410
1	0,000	90,551	1395,511
1	0,000	90,601	1395,511
1	0,000	90,601	1395,511
1	0,000	90,601	1395,712
1	0,000	90,601	1395,712
1	0,000	90,601	1395,813
1	0,000	90,601	1395,813
1	0,000	90,651	1395,914
1	0,000	90,651	1396,014
1	0,000	90,651	1396,115
1	0,000	90,651	1396,216
1	0,000	90,651	1396,216
1	0,000	90,701	1396,317
1	0,000	90,701	1396,417
1	0,000	90,701	1396,417
1	0,000	90,701	1396,518
1	0,000	90,701	1396,518
1	0,000	90,751	1396,719
1	0,000	90,751	1396,820
1	0,000	90,751	1396,820
1	0,000	90,751	1396,921
1	0,000	90,751	1397,021
1	0,000	90,802	1397,021
1	0,000	90,802	1397,122
1	0,000	90,802	1397,223
1	0,000	90,802	1397,324
1	0,000	90,802	1397,525
1	0,000	90,852	1397,525
1	0,000	90,852	1397,525
1	0,000	90,852	1397,626
1	0,000	90,852	1397,726
1	0,000	90,852	1397,726
1	0,000	90,901	1397,928
1	0,000	90,901	1398,029
1	0,000	90,901	1398,029
1	0,000	90,901	1398,129
1	0,000	90,901	1398,331
1	0,000	90,952	1398,230
1	0,000	90,952	1398,331
1	0,000	90,952	1398,431
1	0,000	90,952	1398,431
1	0,000	90,952	1398,532
1	0,000	91,003	1398,633
1	0,000	91,003	1398,734
1	0,000	91,003	1398,834
1	0,000	91,003	1398,935
1	0,000	91,003	1399,036
1	0,000	91,052	1399,036
1	0,000	91,052	1399,237
1	0,000	91,052	1399,237
1	0,000	91,052	1399,338
1	0,000	91,052	1399,539
1	0,000	91,102	1399,539
1	0,000	91,102	1399,539
1	0,000	91,102	1399,640
1	0,000	91,102	1399,741
1	0,000	91,102	1399,841
1	0,000	91,153	1399,841
1	0,000	91,153	1399,942
1	0,000	91,153	1400,043
1	0,000	91,153	1400,143
1	0,000	91,153	1400,143
1	0,000	91,203	1400,244
1	0,000	91,203	1400,446
1	0,000	91,203	1400,446
1	0,000	91,203	1400,546
1	0,000	91,203	1400,546
1	0,000	91,253	1400,244
1	0,000	91,253	1400,748
1	0,000	91,253	1400,848
1	0,000	91,253	1400,647
1	0,000	91,253	1400,949
1	0,000	91,303	1401,050
1	0,000	91,303	1401,151
1	0,000	91,303	1401,151
1	0,000	91,303	1401,352
1	0,000	91,303	1401,352
1	0,000	91,353	1401,352
1	0,000	91,353	1401,553
1	0,000	91,353	1401,654
1	0,000	91,353	1401,654
1	0,000	91,353	1401,755
1	0,000	91,403	1401,755
1	0,000	91,403	1401,956
1	0,000	91,403	1401,956
1	0,000	91,403	1402,057
1	0,000	91,403	1402,158
1	0,000	91,453	1402,258
1	0,000	91,453	1402,359
1	0,000	91,453	1402,460
1	0,000	91,453	1402,560
1	0,000	91,453	1402,560
1	0,000	91,503	1402,560
1	0,000	91,503	1402,762
1	0,000	91,503	1402,963
1	0,000	91,503	1402,963
1	0,000	91,503	1402,963
1	0,000	91,553	1403,064
1	0,000	91,553	1403,265
1	0,000	91,553	1403,265
1	0,000	91,553	1403,265
1	0,000	91,553	1403,366
1	0,000	91,603	1403,467
1	0,000	91,603	1403,467
1	0,000	91,603	1403,568
1	0,000	91,603	1403,265
1	0,000	91,603	1403,870
1	0,000	91,653	1403,870
1	0,000	91,653	1403,870
1	0,000	91,653	1404,071
1	0,000	91,653	1404,172
1	0,000	91,653	1404,172
1	0,000	91,704	1404,272
1	0,000	91,704	1404,373
1	0,000	91,704	1404,373
1	0,000	91,704	1404,474
1	0,000	91,704	1404,575
1	0,000	91,753	1404,675
1	0,000	91,753	1404,675
1	0,000	91,753	1404,776
1	0,000	91,753	1404,877
1	0,000	91,753	1404,977
1	0,000	91,804	1404,977
1	0,000	91,804	1405,078
1	0,000	91,804	1405,179
1	0,000	91,804	1405,280
1	0,000	91,804	1405,380
1	0,000	91,854	1405,481
1	0,000	91,854	1405,481
1	0,000	91,854	1405,582
1	0,000	91,854	1405,682
1	0,000	91,854	1405,783
1	0,000	91,904	1405,884
1	0,000	91,904	1405,884
1	0,000	91,904	1405,984
1	0,000	91,904	1406,085
1	0,000	91,904	1406,186
1	0,000	91,954	1406,186
1	0,000	91,954	1406,287
1	0,000	91,954	1406,186
1	0,000	91,954	1406,589
1	0,000	91,954	1406,085
1	0,000	92,004	1406,790
1	0,000	92,004	1406,689
1	0,000	92,004	1406,891
1	0,000	92,004	1406,992
1	0,000	92,004	1406,992
1	0,000	92,054	1406,891
1	0,000	92,054	1407,193
1	0,000	92,054	1406,689
1	0,000	92,054	1407,294
1	0,000	92,054	1407,495
1	0,000	92,054	1407,495
1	0,000	92,105	1407,596
1	0,000	92,105	1407,697
1	0,000	92,105	1407,797
1	0,000	92,105	1407,898
1	0,000	92,155	1407,898
1	0,000	92,155	1407,999
1	0,000	92,155	1408,099
1	0,000	92,155	1408,200
1	0,000	92,155	1408,301
1	0,000	92,206	1408,200
1	0,000	92,206	1408,502
1	0,000	92,206	1408,502
1	0,000	92,206	1408,401
1	0,000	92,206	1408,603
1	0,000	92,256	1408,804
1	0,000	92,256	1408,905
1	0,000	92,256	1408,905
1	0,000	92,256	1409,006
1	0,000	92,256	1408,905
1	0,000	92,306	1409,207
1	0,000	92,306	1409,308
1	0,000	92,306	1409,409
1	0,000	92,306	1409,409
1	0,000	92,306	1409,509
1	0,000	92,356	1409,509
1	0,000	92,356	1409,711
1	0,000	92,356	1409,711
1	0,000	92,356	1409,912
1	0,000	92,356	1410,013
1	0,000	92,406	1410,013
1	0,000	92,406	1410,114
1	0,000	92,406	1410,315
1	0,000	92,406	1410,114
1	0,000	92,406	1410,416
1	0,000	92,456	1410,416
1	0,000	92,456	1410,516
1	0,000	92,456	1410,617
1	0,000	92,456	1410,617
1	0,000	92,456	1410,718
1	0,000	92,507	1410,818
1	0,000	92,507	1410,919
1	0,000	92,507	1411,121
1	0,000	92,507	1411,121
1	0,000	92,507	1411,221
1	0,000	92,557	1411,221
1	0,000	92,557	1411,322
1	0,000	92,557	1411,423
1	0,000	92,557	1411,423
1	0,000	92,557	1411,725
1	0,000	92,607	1411,725
1	0,000	92,607	1411,926
1	0,000	92,607	1411,826
1	0,000	92,607	1411,926
1	0,000	92,607	1412,128
1	0,000	92,656	1412,228
1	0,000	92,656	1412,228
1	0,000	92,656	1412,228
1	0,000	92,656	1412,430
1	0,000	92,656	1412,329
1	0,000	92,706	1412,732
1	0,000	92,706	1412,732
1	0,000	92,706	1412,732
1	0,000	92,706	1412,833
1	0,000	92,706	1413,135
1	0,000	92,757	1413,034
1	0,000	92,757	1413,135
1	0,000	92,757	1413,034
1	0,000	92,757	1413,437
1	0,000	92,757	1413,437
1	0,000	92,806	1413,437
1	0,000	92,806	1413,437
1	0,000	92,806	1413,638
1	0,000	92,806	1413,739
1	0,000	92,806	1413,739
1	0,000	92,856	1413,840
1	0,000	92,856	1413,940
1	0,000	92,856	1414,041
1	0,000	92,856	1414,142
1	0,000	92,856	1414,142
1	0,000	92,907	1414,243
1	0,000	92,907	1414,444
1	0,000	92,907	1414,444
1	0,000	92,907	1414,545
1	0,000	92,907	1414,746
1	0,000	92,957	1414,645
1	0,000	92,957	1414,948
1	0,000	92,957	1414,948
1	0,000	92,957	1414,948
1	0,000	92,957	1415,048
1	0,000	93,007	1415,149
1	0,000	93,007	1415,149
1	0,000	93,007	1415,250
1	0,000	93,007	1415,350
1	0,000	93,007	1415,451
1	0,000	93,057	1415,552
1	0,000	93,057	1415,652
1	0,000	93,057	1415,652
1	0,000	93,057	1415,753
1	0,000	93,057	1415,854
1	0,000	93,108	1415,955
1	0,000	93,108	1415,955
1	0,000	93,108	1416,156
1	0,000	93,108	1416,257
1	0,000	93,108	1416,357
1	0,000	93,157	1416,357
1	0,000	93,157	1416,458
1	0,000	93,157	1416,559
1	0,000	93,157	1416,660
1	0,000	93,157	1416,660
1	0,000	93,208	1416,760
1	0,000	93,208	1416,962
1	0,000	93,208	1416,962
1	0,000	93,208	1417,163
1	0,000	93,208	1417,264
1	0,000	93,258	1417,264
1	0,000	93,258	1417,365
1	0,000	93,258	1417,163
1	0,000	93,258	1417,566
1	0,000	93,258	1417,566
1	0,000	93,308	1417,767
1	0,000	93,308	1417,868
1	0,000	93,308	1417,868
1	0,000	93,308	1417,969
1	0,000	93,308	1418,069
1	0,000	93,358	1418,170
1	0,000	93,358	1418,170
1	0,000	93,358	1418,271
1	0,000	93,358	1418,372
1	0,000	93,358	1418,472
1	0,000	93,408	1418,573
1	0,000	93,408	1418,573
1	0,000	93,408	1418,774
1	0,000	93,408	1418,774
1	0,000	93,408	1418,875
1	0,000	93,458	1418,976
1	0,000	93,458	1418,976
1	0,000	93,458	1419,077
1	0,000	93,458	1419,177
1	0,000	93,458	1419,379
1	0,000	93,508	1419,479
1	0,000	93,508	1419,580
1	0,000	93,508	1419,681
1	0,000	93,508	1419,681
1	0,000	93,508	1419,882
1	0,000	93,558	1419,882
1	0,000	93,558	1419,983
1	0,000	93,558	1419,983
1	0,000	93,558	1420,184
1	0,000	93,558	1420,285
1	0,000	93,608	1420,285
1	0,000	93,608	1420,386
1	0,000	93,608	1420,386
1	0,000	93,608	1420,587
1	0,000	93,608	1420,688
1	0,000	93,658	1420,789
1	0,000	93,658	1420,789
1	0,000	93,658	1420,889
1	0,000	93,658	1421,091
1	0,000	93,658	1421,091
1	0,000	93,708	1421,191
1	0,000	93,708	1421,191
1	0,000	93,708	1421,292
1	0,000	93,708	1421,393
1	0,000	93,708	1421,494
1	0,000	93,758	1421,594
1	0,000	93,758	1421,695
1	0,000	93,758	1421,695
1	0,000	93,758	1421,796
1	0,000	93,758	1421,997
1	0,000	93,808	1422,098
1	0,000	93,808	1422,299
1	0,000	93,808	1422,299
1	0,000	93,808	1422,299
1	0,000	93,808	1422,501
1	0,000	93,858	1422,501
1	0,000	93,858	1422,601
1	0,000	93,858	1422,702
1	0,000	93,858	1422,803
1	0,000	93,858	1422,903
1	0,000	93,908	1423,105
1	0,000	93,908	1423,105
1	0,000	93,908	1423,206
1	0,000	93,908	1423,004
1	0,000	93,908	1423,306
1	0,000	93,958	1423,407
1	0,000	93,958	1423,206
1	0,000	93,958	1423,709
1	0,000	93,958	1423,810
1	0,000	93,958	1423,810
1	0,000	94,008	1423,911
1	0,000	94,008	1423,911
1	0,000	94,008	1424,011
1	0,000	94,008	1424,112
1	0,000	94,008	1424,213
1	0,000	94,058	1424,414
1	0,000	94,058	1424,112
1	0,000	94,058	1424,515
1	0,000	94,058	1424,515
1	0,000	94,058	1424,716
1	0,000	94,108	1424,817
1	0,000	94,108	1424,817
1	0,000	94,108	1425,119
1	0,000	94,108	1424,716
1	0,000	94,108	1424,817
1	0,000	94,158	1425,220
1	0,000	94,158	1425,320
1	0,000	94,158	1425,421
1	0,000	94,158	1425,522
1	0,000	94,158	1425,522
1	0,000	94,208	1425,522
1	0,000	94,208	1425,824
1	0,000	94,208	1425,824
1	0,000	94,208	1425,925
1	0,000	94,208	1426,025
1	0,000	94,259	1426,126
1	0,000	94,259	1426,126
1	0,000	94,259	1426,328
1	0,000	94,259	1426,328
1	0,000	94,259	1426,529
1	0,000	94,308	1426,630
1	0,000	94,308	1426,730
1	0,000	94,308	1426,730
1	0,000	94,308	1426,932
1	0,000	94,308	1426,932
1	0,000	94,359	1426,831
1	0,000	94,359	1427,133
1	0,000	94,359	1427,234
1	0,000	94,359	1427,335
1	0,000	94,359	1427,335
1	0,000	94,409	1427,536
1	0,000	94,409	1427,637
1	0,000	94,409	1427,838
1	0,000	94,409	1427,939
1	0,000	94,409	1427,838
1	0,000	94,409	1427,939
1	0,000	94,460	1428,140
1	0,000	94,460	1428,140
1	0,000	94,460	1428,241
1	0,000	94,460	1428,342
1	0,000	94,460	1428,442
1	0,000	94,509	1428,543
1	0,000	94,509	1428,644
1	0,000	94,509	1428,745
1	0,000	94,509	1428,745
1	0,000	94,509	1429,047
1	0,000	94,561	1428,946
1	0,000	94,561	1429,047
1	0,000	94,561	1429,248
1	0,000	94,561	1429,248
1	0,000	94,561	1429,349
1	0,000	94,610	1429,449
1	0,000	94,610	1429,550
1	0,000	94,610	1429,651
1	0,000	94,610	1429,752
1	0,000	94,610	1429,953
1	0,000	94,661	1429,953
1	0,000	94,661	1430,054
1	0,000	94,661	1430,054
1	0,000	94,661	1430,255
1	0,000	94,661	1430,356
1	0,000	94,710	1430,356
1	0,000	94,710	1430,457
1	0,000	94,710	1430,457
1	0,000	94,710	1430,658
1	0,000	94,710	1430,658
1	0,000	94,761	1430,859
1	0,000	94,761	1430,960
1	0,000	94,761	1431,161
1	0,000	94,761	1431,363
1	0,000	94,761	1431,464
1	0,000	94,811	1431,363
1	0,000	94,811	1431,363
1	0,000	94,811	1431,564
1	0,000	94,811	1431,564
1	0,000	94,811	1431,665
1	0,000	94,861	1431,665
1	0,000	94,861	1431,866
1	0,000	94,861	1431,866
1	0,000	94,861	1432,068
1	0,000	94,861	1432,068
1	0,000	94,912	1432,269
1	0,000	94,912	1432,269
1	0,000	94,912	1432,370
1	0,000	94,912	1432,471
1	0,000	94,912	1432,571
1	0,000	94,962	1432,672
1	0,000	94,962	1432,773
1	0,000	94,962	1432,874
1	0,000	94,962	1432,974
1	0,000	94,962	1433,075
1	0,000	95,012	1433,176
1	0,000	95,012	1432,974
1	0,000	95,012	1433,478
1	0,000	95,012	1433,478
1	0,000	95,012	1433,578
1	0,000	95,062	1433,679
1	0,000	95,062	1433,679
1	0,000	95,062	1433,881
1	0,000	95,062	1434,082
1	0,000	95,062	1434,082
1	0,000	95,113	1434,183
1	0,000	95,113	1434,384
1	0,000	95,113	1434,384
1	0,000	95,113	1434,384
1	0,000	95,113	1434,485
1	0,000	95,163	1434,586
1	0,000	95,163	1434,686
1	0,000	95,163	1434,787
1	0,000	95,163	1434,888
1	0,000	95,163	1434,888
1	0,000	95,213	1434,988
1	0,000	95,213	1435,190
1	0,000	95,213	1434,888
1	0,000	95,213	1435,391
1	0,000	95,213	1435,391
1	0,000	95,262	1435,492
1	0,000	95,262	1435,693
1	0,000	95,262	1435,693
1	0,000	95,262	1435,693
1	0,000	95,262	1435,794
1	0,000	95,313	1435,895
1	0,000	95,313	1435,995
1	0,000	95,313	1436,096
1	0,000	95,313	1436,197
1	0,000	95,313	1436,398
1	0,000	95,362	1436,499
1	0,000	95,362	1436,499
1	0,000	95,362	1436,600
1	0,000	95,362	1436,700
1	0,000	95,362	1436,801
1	0,000	95,413	1436,902
1	0,000	95,413	1437,003
1	0,000	95,413	1437,103
1	0,000	95,413	1437,204
1	0,000	95,413	1437,305
1	0,000	95,463	1437,506
1	0,000	95,463	1437,607
1	0,000	95,463	1437,808
1	0,000	95,463	1437,708
1	0,000	95,463	1437,808
1	0,000	95,512	1437,909
1	0,000	95,512	1438,010
1	0,000	95,512	1438,110
1	0,000	95,512	1438,110
1	0,000	95,512	1438,211
1	0,000	95,563	1438,312
1	0,000	95,563	1438,513
1	0,000	95,563	1438,513
1	0,000	95,563	1438,715
1	0,000	95,563	1438,715
1	0,000	95,613	1438,815
1	0,000	95,613	1438,916
1	0,000	95,613	1438,513
1	0,000	95,613	1439,218
1	0,000	95,613	1439,218
1	0,000	95,663	1439,319
1	0,000	95,663	1439,319
1	0,000	95,663	1439,520
1	0,000	95,663	1439,218
1	0,000	95,663	1439,621
1	0,000	95,713	1439,722
1	0,000	95,713	1439,822
1	0,000	95,713	1439,923
1	0,000	95,713	1440,024
1	0,000	95,713	1440,125
1	0,000	95,763	1440,225
1	0,000	95,763	1440,326
1	0,000	95,763	1440,527
1	0,000	95,763	1440,527
1	0,000	95,763	1440,628
1	0,000	95,813	1440,729
1	0,000	95,813	1440,729
1	0,000	95,813	1440,930
1	0,000	95,813	1440,930
1	0,000	95,813	1441,031
1	0,000	95,863	1441,232
1	0,000	95,863	1441,333
1	0,000	95,863	1441,333
1	0,000	95,863	1441,333
1	0,000	95,863	1441,333
1	0,000	95,913	1441,635
1	0,000	95,913	1441,736
1	0,000	95,913	1441,837
1	0,000	95,913	1441,937
1	0,000	95,913	1442,139
1	0,000	95,963	1442,139
1	0,000	95,963	1442,239
1	0,000	95,963	1442,340
1	0,000	95,963	1442,441
1	0,000	95,963	1442,542
1	0,000	96,014	1442,542
1	0,000	96,014	1442,542
1	0,000	96,014	1442,844
1	0,000	96,014	1442,642
1	0,000	96,014	1443,146
1	0,000	96,064	1443,146
1	0,000	96,064	1443,246
1	0,000	96,064	1443,347
1	0,000	96,064	1443,448
1	0,000	96,064	1443,549
1	0,000	96,114	1443,649
1	0,000	96,114	1443,750
1	0,000	96,114	1443,851
1	0,000	96,114	1443,951
1	0,000	96,114	1444,052
1	0,000	96,164	1444,052
1	0,000	96,164	1444,254
1	0,000	96,164	1444,354
1	0,000	96,164	1444,455
1	0,000	96,164	1444,455
1	0,000	96,214	1444,656
1	0,000	96,214	1444,656
1	0,000	96,214	1444,757
1	0,000	96,214	1444,858
1	0,000	96,214	1444,958
1	0,000	96,264	1445,059
1	0,000	96,264	1445,160
1	0,000	96,264	1445,261
1	0,000	96,264	1445,261
1	0,000	96,264	1445,462
1	0,000	96,315	1445,563
1	0,000	96,315	1445,663
1	0,000	96,315	1445,764
1	0,000	96,315	1445,865
1	0,000	96,315	1445,966
1	0,000	96,365	1445,966
1	0,000	96,365	1446,066
1	0,000	96,365	1446,368
1	0,000	96,365	1446,268
1	0,000	96,365	1446,167
1	0,000	96,415	1446,469
1	0,000	96,415	1446,671
1	0,000	96,415	1446,671
1	0,000	96,415	1446,671
1	0,000	96,415	1446,872
1	0,000	96,465	1446,872
1	0,000	96,465	1447,073
1	0,000	96,465	1447,174
1	0,000	96,465	1447,275
1	0,000	96,465	1447,375
1	0,000	96,515	1447,375
1	0,000	96,515	1447,476
1	0,000	96,515	1447,577
1	0,000	96,515	1447,678
1	0,000	96,515	1447,778
1	0,000	96,565	1447,980
1	0,000	96,565	1447,980
1	0,000	96,565	1448,181
1	0,000	96,565	1448,181
1	0,000	96,565	1448,282
1	0,000	96,615	1448,483
1	0,000	96,615	1448,483
1	0,000	96,615	1448,785
1	0,000	96,615	1448,886
1	0,000	96,615	1448,785
1	0,000	96,665	1448,886
1	0,000	96,665	1448,886
1	0,000	96,665	1449,088
1	0,000	96,665	1449,188
1	0,000	96,665	1449,289
1	0,000	96,715	1449,390
1	0,000	96,715	1449,490
1	0,000	96,715	1449,591
1	0,000	96,715	1449,591
1	0,000	96,715	1449,792
1	0,000	96,765	1449,289
1	0,000	96,765	1450,296
1	0,000	96,765	1450,095
1	0,000	96,765	1450,195
1	0,000	96,765	1450,296
1	0,000	96,815	1450,397
1	0,000	96,815	1450,497
1	0,000	96,815	1450,598
1	0,000	96,815	1450,699
1	0,000	96,815	1450,800
1	0,000	96,865	1450,900
1	0,000	96,865	1451,102
1	0,000	96,865	1451,303
1	0,000	96,865	1451,404
1	0,000	96,865	1451,404
1	0,000	96,916	1451,303
1	0,000	96,916	1451,505
1	0,000	96,916	1451,605
1	0,000	96,916	1451,807
1	0,000	96,916	1451,807
1	0,000	96,966	1452,008
1	0,000	96,966	1452,109
1	0,000	96,966	1452,209
1	0,000	96,966	1452,310
1	0,000	96,966	1452,411
1	0,000	97,016	1452,512
1	0,000	97,016	1452,612
1	0,000	97,016	1452,713
1	0,000	97,016	1452,814
1	0,000	97,016	1452,914
1	0,000	97,066	1452,914
1	0,000	97,066	1453,015
1	0,000	97,066	1453,116
1	0,000	97,066	1453,217
1	0,000	97,066	1453,317
1	0,000	97,116	1453,519
1	0,000	97,116	1453,619
1	0,000	97,116	1453,619
1	0,000	97,116	1453,821
1	0,000	97,116	1453,922
1	0,000	97,166	1454,022
1	0,000	97,166	1454,022
1	0,000	97,166	1454,123
1	0,000	97,166	1454,224
1	0,000	97,166	1454,324
1	0,000	97,216	1454,425
1	0,000	97,216	1454,626
1	0,000	97,216	1454,626
1	0,000	97,216	1454,727
1	0,000	97,216	1454,929
1	0,000	97,266	1455,029
1	0,000	97,266	1455,029
1	0,000	97,266	1455,231
1	0,000	97,266	1455,331
1	0,000	97,266	1455,432
1	0,000	97,316	1455,533
1	0,000	97,316	1455,634
1	0,000	97,316	1455,634
1	0,000	97,316	1455,734
1	0,000	97,316	1455,835
1	0,000	97,366	1456,137
1	0,000	97,366	1456,137
1	0,000	97,366	1455,835
1	0,000	97,366	1456,439
1	0,000	97,366	1456,339
1	0,000	97,416	1456,439
1	0,000	97,416	1456,540
1	0,000	97,416	1456,641
1	0,000	97,416	1456,741
1	0,000	97,416	1456,943
1	0,000	97,466	1456,943
1	0,000	97,466	1457,144
1	0,000	97,466	1457,144
1	0,000	97,466	1457,245
1	0,000	97,466	1457,446
1	0,000	97,517	1457,547
1	0,000	97,517	1457,648
1	0,000	97,517	1457,849
1	0,000	97,517	1457,849
1	0,000	97,517	1457,849
1	0,000	97,566	1457,950
1	0,000	97,566	1458,051
1	0,000	97,566	1458,151
1	0,000	97,566	1458,353
1	0,000	97,566	1458,453
1	0,000	97,616	1458,453
1	0,000	97,616	1458,655
1	0,000	97,616	1458,755
1	0,000	97,616	1458,856
1	0,000	97,616	1458,856
1	0,000	97,666	1459,058
1	0,000	97,666	1459,158
1	0,000	97,666	1459,158
1	0,000	97,666	1459,259
1	0,000	97,666	1459,460
1	0,000	97,716	1459,561
1	0,000	97,716	1459,662
1	0,000	97,716	1459,662
1	0,000	97,716	1459,763
1	0,000	97,716	1459,863
1	0,000	97,767	1460,065
1	0,000	97,767	1460,165
1	0,000	97,767	1460,266
1	0,000	97,767	1460,367
1	0,000	97,767	1460,367
1	0,000	97,816	1460,468
1	0,000	97,816	1460,568
1	0,000	97,816	1460,870
1	0,000	97,816	1460,870
1	0,000	97,816	1460,870
1	0,000	97,867	1461,072
1	0,000	97,867	1461,172
1	0,000	97,867	1461,273
1	0,000	97,867	1461,374
1	0,000	97,867	1461,475
1	0,000	97,918	1461,374
1	0,000	97,918	1461,777
1	0,000	97,918	1461,777
1	0,000	97,918	1461,877
1	0,000	97,918	1462,079
1	0,000	97,918	1462,180
1	0,000	97,967	1462,180
1	0,000	97,967	1462,280
1	0,000	97,967	1462,482
1	0,000	97,967	1462,482
1	0,000	98,017	1462,582
1	0,000	98,017	1462,683
1	0,000	98,017	1462,784
1	0,000	98,017	1462,885
1	0,000	98,017	1463,086
1	0,000	98,017	1463,086
1	0,000	98,067	1463,187
1	0,000	98,067	1463,287
1	0,000	98,067	1463,489
1	0,000	98,067	1463,690
1	0,000	98,117	1463,690
1	0,000	98,117	1463,791
1	0,000	98,117	1463,892
1	0,000	98,117	1463,992
1	0,000	98,117	1464,093
1	0,000	98,167	1464,194
1	0,000	98,167	1464,294
1	0,000	98,167	1464,395
1	0,000	98,167	1464,496
1	0,000	98,167	1464,597
1	0,000	98,167	1464,697
1	0,000	98,217	1464,899
1	0,000	98,217	1464,999
1	0,000	98,217	1465,100
1	0,000	98,217	1465,201
1	0,000	98,217	1465,201
1	0,000	98,267	1465,402
1	0,000	98,267	1465,503
1	0,000	98,267	1465,503
1	0,000	98,267	1465,604
1	0,000	98,267	1465,704
1	0,000	98,318	1465,805
1	0,000	98,318	1466,107
1	0,000	98,318	1466,107
1	0,000	98,318	1466,208
1	0,000	98,318	1466,208
1	0,000	98,368	1466,409
1	0,000	98,368	1466,510
1	0,000	98,368	1466,611
1	0,000	98,368	1466,711
1	0,000	98,368	1466,812
1	0,000	98,418	1466,913
1	0,000	98,418	1467,014
1	0,000	98,418	1467,215
1	0,000	98,418	1467,114
1	0,000	98,418	1467,416
1	0,000	98,468	1467,517
1	0,000	98,468	1467,517
1	0,000	98,468	1467,618
1	0,000	98,468	1467,719
1	0,000	98,468	1468,021
1	0,000	98,518	1467,920
1	0,000	98,518	1468,021
1	0,000	98,518	1468,222
1	0,000	98,518	1468,222
1	0,000	98,518	1468,423
1	0,000	98,568	1468,524
1	0,000	98,568	1468,524
1	0,000	98,568	1468,625
1	0,000	98,568	1468,826
1	0,000	98,568	1468,927
1	0,000	98,618	1469,028
1	0,000	98,618	1469,128
1	0,000	98,618	1469,229
1	0,000	98,618	1469,431
1	0,000	98,618	1469,531
1	0,000	98,668	1469,531
1	0,000	98,668	1469,632
1	0,000	98,668	1469,733
1	0,000	98,668	1469,833
1	0,000	98,668	1469,934
1	0,000	98,718	1470,135
1	0,000	98,718	1470,236
1	0,000	98,718	1470,337
1	0,000	98,718	1470,438
1	0,000	98,718	1470,538
1	0,000	98,768	1470,639
1	0,000	98,768	1470,639
1	0,000	98,768	1470,740
1	0,000	98,768	1470,941
1	0,000	98,768	1471,042
1	0,000	98,818	1471,042
1	0,000	98,818	1471,243
1	0,000	98,818	1471,042
1	0,000	98,818	1471,445
1	0,000	98,818	1471,545
1	0,000	98,868	1471,747
1	0,000	98,868	1471,848
1	0,000	98,868	1471,948
1	0,000	98,868	1471,948
1	0,000	98,868	1472,150
1	0,000	98,918	1472,150
1	0,000	98,918	1472,250
1	0,000	98,918	1472,351
1	0,000	98,918	1472,552
1	0,000	98,918	1472,653
1	0,000	98,968	1472,754
1	0,000	98,968	1472,855
1	0,000	98,968	1472,955
1	0,000	98,968	1473,056
1	0,000	98,968	1473,157
1	0,000	99,018	1473,257
1	0,000	99,018	1473,459
1	0,000	99,018	1473,560
1	0,000	99,018	1473,560
1	0,000	99,018	1473,660
1	0,000	99,068	1473,862
1	0,000	99,068	1473,962
1	0,000	99,068	1474,063
1	0,000	99,068	1474,164
1	0,000	99,068	1474,265
1	0,000	99,118	1474,365
1	0,000	99,118	1474,567
1	0,000	99,118	1474,567
1	0,000	99,118	1474,768
1	0,000	99,118	1474,768
1	0,000	99,169	1474,969
1	0,000	99,169	1475,070
1	0,000	99,169	1475,171
1	0,000	99,169	1475,171
1	0,000	99,169	1475,372
1	0,000	99,219	1475,372
1	0,000	99,219	1475,574
1	0,000	99,219	1475,574
1	0,000	99,219	1475,674
1	0,000	99,219	1475,876
1	0,000	99,269	1475,977
1	0,000	99,269	1476,077
1	0,000	99,269	1476,178
1	0,000	99,269	1476,178
1	0,000	99,269	1476,480
1	0,000	99,319	1476,480
1	0,000	99,319	1476,782
1	0,000	99,319	1476,782
1	0,000	99,319	1476,883
1	0,000	99,319	1476,883
1	0,000	99,369	1477,084
1	0,000	99,369	1477,185
1	0,000	99,369	1477,286
1	0,000	99,369	1477,487
1	0,000	99,369	1477,487
1	0,000	99,419	1477,689
1	0,000	99,419	1477,789
1	0,000	99,419	1477,890
1	0,000	99,419	1477,991
1	0,000	99,419	1477,991
1	0,000	99,469	1478,293
1	0,000	99,469	1478,293
1	0,000	99,469	1478,394
1	0,000	99,469	1478,494
1	0,000	99,469	1478,494
1	0,000	99,519	1478,696
1	0,000	99,519	1478,796
1	0,000	99,519	1478,897
1	0,000	99,519	1478,998
1	0,000	99,519	1479,099
1	0,000	99,569	1479,199
1	0,000	99,569	1479,300
1	0,000	99,569	1478,897
1	0,000	99,569	1479,602
1	0,000	99,569	1479,803
1	0,000	99,619	1479,501
1	0,000	99,619	1480,005
1	0,000	99,619	1480,005
1	0,000	99,619	1480,106
1	0,000	99,619	1480,206
1	0,000	99,670	1480,307
1	0,000	99,670	1480,408
1	0,000	99,670	1480,508
1	0,000	99,670	1480,609
1	0,000	99,670	1480,811
1	0,000	99,720	1481,012
1	0,000	99,720	1481,012
1	0,000	99,720	1481,113
1	0,000	99,720	1481,113
1	0,000	99,720	1481,314
1	0,000	99,770	1481,314
1	0,000	99,770	1481,516
1	0,000	99,770	1481,616
1	0,000	99,770	1481,717
1	0,000	99,770	1481,818
1	0,000	99,820	1481,818
1	0,000	99,820	1482,120
1	0,000	99,820	1482,220
1	0,000	99,820	1482,422
1	0,000	99,820	1482,321
1	0,000	99,871	1482,422
1	0,000	99,871	1482,623
1	0,000	99,871	1482,623
1	0,000	99,871	1482,925
1	0,000	99,871	1482,925
1	0,000	99,921	1483,228
1	0,000	99,921	1483,127
1	0,000	99,921	1483,429
1	0,000	99,921	1483,429
1	0,000	99,921	1483,530
1	0,000	99,971	1483,630
1	0,000	99,971	1483,731
1	0,000	99,971	1483,932
1	0,000	99,971	1483,932
1	0,000	99,971	1484,033
1	0,000	100,021	1484,134
1	0,000	100,021	1484,436
1	0,000	100,021	1484,335
1	0,000	100,021	1484,537
1	0,000	100,021	1484,637
1	0,000	100,071	1484,738
1	0,000	100,071	1484,839
1	0,000	100,071	1484,940
1	0,000	100,071	1485,040
1	0,000	100,071	1485,242
1	0,000	100,120	1485,242
1	0,000	100,120	1485,443
1	0,000	100,120	1485,443
1	0,000	100,120	1485,645
1	0,000	100,120	1485,745
1	0,000	100,170	1485,947
1	0,000	100,170	1485,947
1	0,000	100,170	1486,047
1	0,000	100,170	1486,148
1	0,000	100,170	1486,249
1	0,000	100,221	1486,349
1	0,000	100,221	1486,652
1	0,000	100,221	1486,752
1	0,000	100,221	1486,752
1	0,000	100,221	1486,853
1	0,000	100,271	1486,954
1	0,000	100,271	1487,054
1	0,000	100,271	1487,155
1	0,000	100,271	1487,256
1	0,000	100,271	1487,457
1	0,000	100,320	1487,558
1	0,000	100,320	1487,659
1	0,000	100,320	1487,759
1	0,000	100,320	1487,860
1	0,000	100,320	1487,961
1	0,000	100,371	1488,062
1	0,000	100,371	1488,162
1	0,000	100,371	1488,364
1	0,000	100,371	1488,364
1	0,000	100,371	1488,565
1	0,000	100,421	1488,666
1	0,000	100,421	1488,666
1	0,000	100,421	1488,968
1	0,000	100,421	1489,069
1	0,000	100,421	1489,069
1	0,000	100,470	1489,270
1	0,000	100,470	1489,371
1	0,000	100,470	1489,371
1	0,000	100,470	1489,371
1	0,000	100,470	1489,774
1	0,000	100,520	1489,774
1	0,000	100,520	1489,874
1	0,000	100,520	1490,076
1	0,000	100,520	1490,378
1	0,000	100,520	1490,277
1	0,000	100,571	1490,378
1	0,000	100,571	1490,479
1	0,000	100,571	1490,579
1	0,000	100,571	1490,680
1	0,000	100,571	1490,781
1	0,000	100,621	1490,881
1	0,000	100,621	1490,680
1	0,000	100,621	1491,183
1	0,000	100,621	1491,284
1	0,000	100,621	1491,385
1	0,000	100,671	1491,385
1	0,000	100,671	1491,687
1	0,000	100,671	1491,788
1	0,000	100,671	1491,888
1	0,000	100,671	1491,989
1	0,000	100,720	1492,090
1	0,000	100,720	1492,191
1	0,000	100,720	1492,291
1	0,000	100,720	1492,392
1	0,000	100,720	1492,493
1	0,000	100,770	1492,694
1	0,000	100,770	1492,795
1	0,000	100,770	1492,896
1	0,000	100,770	1492,996
1	0,000	100,770	1492,996
1	0,000	100,820	1492,896
1	0,000	100,820	1493,399
1	0,000	100,820	1493,399
1	0,000	100,820	1493,399
1	0,000	100,820	1493,500
1	0,000	100,870	1493,802
1	0,000	100,870	1493,802
1	0,000	100,870	1493,903
1	0,000	100,870	1494,003
1	0,000	100,870	1494,104
1	0,000	100,921	1494,205
1	0,000	100,921	1494,406
1	0,000	100,921	1494,507
1	0,000	100,921	1494,708
1	0,000	100,921	1494,708
1	0,000	100,970	1494,910
1	0,000	100,970	1494,910
1	0,000	100,970	1495,010
1	0,000	100,970	1495,111
1	0,000	100,970	1495,212
1	0,000	101,021	1495,312
1	0,000	101,021	1495,413
1	0,000	101,021	1495,615
1	0,000	101,021	1495,715
1	0,000	101,021	1495,917
1	0,000	101,070	1496,017
1	0,000	101,070	1496,017
1	0,000	101,070	1496,118
1	0,000	101,070	1496,320
1	0,000	101,070	1496,521
1	0,000	101,120	1496,521
1	0,000	101,120	1496,622
1	0,000	101,120	1496,722
1	0,000	101,120	1496,823
1	0,000	101,120	1496,924
1	0,000	101,171	1497,125
1	0,000	101,171	1497,226
1	0,000	101,171	1497,327
1	0,000	101,171	1497,528
1	0,000	101,171	1497,629
1	0,000	101,220	1497,629
1	0,000	101,220	1497,729
1	0,000	101,220	1497,931
1	0,000	101,220	1497,830
1	0,000	101,220	1498,233
1	0,000	101,270	1498,334
1	0,000	101,270	1498,334
1	0,000	101,270	1498,535
1	0,000	101,270	1498,535
1	0,000	101,270	1498,737
1	0,000	101,321	1498,837
1	0,000	101,321	1498,938
1	0,000	101,321	1499,139
1	0,000	101,321	1499,240
1	0,000	101,321	1499,240
1	0,000	101,370	1499,341
1	0,000	101,370	1499,643
1	0,000	101,370	1499,643
1	0,000	101,370	1499,844
1	0,000	101,370	1499,945
1	0,000	101,420	1500,046
1	0,000	101,420	1500,247
1	0,000	101,420	1500,247
1	0,000	101,420	1500,449
1	0,000	101,420	1500,549
1	0,000	101,471	1500,650
1	0,000	101,471	1500,751
1	0,000	101,471	1500,851
1	0,000	101,471	1500,952
1	0,000	101,471	1501,154
1	0,000	101,520	1501,355
1	0,000	101,520	1501,355
1	0,000	101,520	1501,456
1	0,000	101,520	1501,456
1	0,000	101,520	1501,657
1	0,000	101,570	1501,758
1	0,000	101,570	1501,657
1	0,000	101,570	1502,161
1	0,000	101,570	1502,060
1	0,000	101,570	1502,261
1	0,000	101,621	1502,261
1	0,000	101,621	1502,463
1	0,000	101,621	1502,563
1	0,000	101,621	1502,563
1	0,000	101,621	1502,563
1	0,000	101,671	1502,966
1	0,000	101,671	1503,067
1	0,000	101,671	1503,067
1	0,000	101,671	1503,268
1	0,000	101,671	1503,369
1	0,000	101,721	1503,369
1	0,000	101,721	1503,671
1	0,000	101,721	1503,671
1	0,000	101,721	1503,873
1	0,000	101,721	1503,873
1	0,000	101,771	1504,074
1	0,000	101,771	1504,175
1	0,000	101,771	1504,376
1	0,000	101,771	1504,175
1	0,000	101,771	1504,477
1	0,000	101,821	1504,678
1	0,000	101,821	1504,880
1	0,000	101,821	1504,678
1	0,000	101,821	1505,283
1	0,000	101,821	1504,880
1	0,000	101,871	1505,283
1	0,000	101,871	1505,383
1	0,000	101,871	1505,685
1	0,000	101,871	1505,685
1	0,000	101,871	1505,685
1	0,000	101,921	1505,887
1	0,000	101,921	1505,988
1	0,000	101,921	1506,088
1	0,000	101,921	1506,189
1	0,000	101,921	1506,290
1	0,000	101,971	1506,390
1	0,000	101,971	1506,491
1	0,000	101,971	1506,592
1	0,000	101,971	1506,793
1	0,000	101,971	1506,894
1	0,000	102,022	1506,995
1	0,000	102,022	1507,095
1	0,000	102,022	1507,196
1	0,000	102,022	1507,397
1	0,000	102,022	1507,498
1	0,000	102,071	1507,700
1	0,000	102,071	1507,700
1	0,000	102,071	1507,800
1	0,000	102,071	1508,102
1	0,000	102,071	1508,102
1	0,000	102,122	1508,203
1	0,000	102,122	1508,304
1	0,000	102,122	1508,405
1	0,000	102,122	1508,606
1	0,000	102,122	1508,707
1	0,000	102,171	1508,807
1	0,000	102,171	1509,009
1	0,000	102,171	1509,009
1	0,000	102,171	1509,109
1	0,000	102,171	1509,210
1	0,000	102,221	1509,412
1	0,000	102,221	1509,512
1	0,000	102,221	1509,714
1	0,000	102,221	1509,714
1	0,000	102,221	1509,915
1	0,000	102,272	1510,016
1	0,000	102,272	1510,117
1	0,000	102,272	1510,318
1	0,000	102,272	1510,318
1	0,000	102,272	1510,519
1	0,000	102,322	1510,620
1	0,000	102,322	1510,721
1	0,000	102,322	1510,822
1	0,000	102,322	1510,922
1	0,000	102,322	1511,023
1	0,000	102,372	1511,325
1	0,000	102,372	1511,426
1	0,000	102,372	1511,526
1	0,000	102,372	1511,627
1	0,000	102,372	1511,829
1	0,000	102,422	1511,929
1	0,000	102,422	1512,030
1	0,000	102,422	1512,231
1	0,000	102,422	1512,231
1	0,000	102,422	1512,433
1	0,000	102,472	1512,534
1	0,000	102,472	1512,735
1	0,000	102,472	1512,735
1	0,000	102,472	1512,836
1	0,000	102,472	1513,037
1	0,000	102,522	1513,138
1	0,000	102,522	1513,339
1	0,000	102,522	1513,440
1	0,000	102,522	1513,440
1	0,000	102,522	1513,541
1	0,000	102,572	1513,641
1	0,000	102,572	1513,742
1	0,000	102,572	1513,843
1	0,000	102,572	1513,943
1	0,000	102,572	1514,044
1	0,000	102,622	1514,145
1	0,000	102,622	1514,346
1	0,000	102,622	1514,447
1	0,000	102,622	1514,648
1	0,000	102,622	1514,749
1	0,000	102,672	1514,850
1	0,000	102,672	1515,051
1	0,000	102,672	1515,152
1	0,000	102,672	1515,152
1	0,000	102,672	1515,454
1	0,000	102,722	1515,656
1	0,000	102,722	1515,756
1	0,000	102,722	1515,656
1	0,000	102,722	1515,857
1	0,000	102,722	1515,958
1	0,000	102,772	1516,058
1	0,000	102,772	1516,260
1	0,000	102,772	1516,260
1	0,000	102,772	1516,461
1	0,000	102,772	1516,461
1	0,000	102,822	1516,562
1	0,000	102,822	1516,763
1	0,000	102,822	1516,562
1	0,000	102,822	1517,065
1	0,000	102,822	1517,166
1	0,000	102,872	1517,267
1	0,000	102,872	1517,368
1	0,000	102,872	1517,468
1	0,000	102,872	1517,569
1	0,000	102,872	1517,670
1	0,000	102,922	1517,871
1	0,000	102,922	1517,972
1	0,000	102,922	1518,073
1	0,000	102,922	1518,173
1	0,000	102,922	1518,274
1	0,000	102,973	1518,375
1	0,000	102,973	1518,576
1	0,000	102,973	1518,677
1	0,000	102,973	1518,777
1	0,000	102,973	1518,677
1	0,000	103,023	1519,180
1	0,000	103,023	1519,180
1	0,000	103,023	1519,281
1	0,000	103,023	1519,482
1	0,000	103,023	1519,583
1	0,000	103,073	1519,684
1	0,000	103,073	1519,785
1	0,000	103,073	1519,885
1	0,000	103,073	1520,087
1	0,000	103,073	1520,187
1	0,000	103,123	1520,288
1	0,000	103,123	1520,490
1	0,000	103,123	1520,490
1	0,000	103,123	1520,691
1	0,000	103,123	1520,792
1	0,000	103,173	1520,892
1	0,000	103,173	1520,993
1	0,000	103,173	1521,094
1	0,000	103,173	1521,295
1	0,000	103,173	1521,396
1	0,000	103,223	1521,597
1	0,000	103,223	1521,698
1	0,000	103,223	1521,799
1	0,000	103,223	1521,899
1	0,000	103,223	1522,000
1	0,000	103,273	1522,202
1	0,000	103,273	1522,101
1	0,000	103,273	1522,000
1	0,000	103,273	1522,604
1	0,000	103,273	1522,705
1	0,000	103,323	1522,806
1	0,000	103,323	1522,806
1	0,000	103,323	1523,007
1	0,000	103,323	1523,108
1	0,000	103,323	1523,309
1	0,000	103,373	1523,309
1	0,000	103,373	1523,511
1	0,000	103,373	1523,611
1	0,000	103,373	1523,712
1	0,000	103,373	1523,914
1	0,000	103,423	1523,914
1	0,000	103,423	1524,115
1	0,000	103,423	1524,216
1	0,000	103,423	1524,417
1	0,000	103,423	1524,518
1	0,000	103,474	1524,518
1	0,000	103,474	1524,719
1	0,000	103,474	1524,619
1	0,000	103,474	1524,921
1	0,000	103,474	1525,122
1	0,000	103,524	1525,323
1	0,000	103,524	1525,424
1	0,000	103,524	1525,424
1	0,000	103,524	1525,726
1	0,000	103,524	1525,827
1	0,000	103,574	1525,827
1	0,000	103,574	1525,928
1	0,000	103,574	1525,928
1	0,000	103,574	1526,230
1	0,000	103,574	1526,230
1	0,000	103,574	1526,431
1	0,000	103,625	1526,532
1	0,000	103,625	1526,633
1	0,000	103,625	1526,834
1	0,000	103,625	1526,935
1	0,000	103,625	1527,136
1	0,000	103,674	1527,136
1	0,000	103,674	1527,338
1	0,000	103,674	1527,338
1	0,000	103,674	1527,640
1	0,000	103,725	1527,740
1	0,000	103,725	1527,841
1	0,000	103,725	1527,942
1	0,000	103,725	1528,043
1	0,000	103,725	1528,143
1	0,000	103,774	1528,244
1	0,000	103,774	1528,345
1	0,000	103,774	1528,445
1	0,000	103,774	1528,647
1	0,000	103,774	1528,647
1	0,000	103,774	1529,050
1	0,000	103,825	1529,050
1	0,000	103,825	1529,150
1	0,000	103,825	1529,251
1	0,000	103,825	1529,453
1	0,000	103,825	1529,553
1	0,000	103,875	1529,755
1	0,000	103,875	1529,855
1	0,000	103,875	1529,956
1	0,000	103,875	1530,057
1	0,000	103,925	1530,157
1	0,000	103,925	1530,359
1	0,000	103,925	1530,560
1	0,000	103,925	1530,661
1	0,000	103,925	1530,762
1	0,000	103,975	1530,862
1	0,000	103,975	1531,064
1	0,000	103,975	1531,064
1	0,000	103,975	1531,165
1	0,000	103,975	1531,366
1	0,000	103,975	1531,467
1	0,000	104,025	1531,668
1	0,000	104,025	1531,668
1	0,000	104,025	1531,970
1	0,000	104,025	1531,970
1	0,000	104,025	1532,071
1	0,000	104,075	1532,272
1	0,000	104,075	1532,373
1	0,000	104,075	1532,474
1	0,000	104,075	1532,574
1	0,000	104,075	1532,776
1	0,000	104,125	1532,776
1	0,000	104,125	1532,977
1	0,000	104,125	1533,179
1	0,000	104,125	1533,179
1	0,000	104,125	1533,380
1	0,000	104,175	1533,481
1	0,000	104,175	1533,582
1	0,000	104,175	1533,380
1	0,000	104,175	1533,984
1	0,000	104,175	1533,984
1	0,000	104,225	1534,186
1	0,000	104,225	1534,286
1	0,000	104,225	1534,488
1	0,000	104,225	1534,488
1	0,000	104,225	1534,589
1	0,000	104,276	1534,689
1	0,000	104,276	1534,891
1	0,000	104,276	1534,991
1	0,000	104,276	1535,193
1	0,000	104,276	1535,294
1	0,000	104,326	1535,495
1	0,000	104,326	1535,495
1	0,000	104,326	1535,696
1	0,000	104,326	1535,797
1	0,000	104,376	1535,898
1	0,000	104,376	1535,999
1	0,000	104,376	1536,200
1	0,000	104,376	1536,401
1	0,000	104,376	1536,401
1	0,000	104,376	1536,703
1	0,000	104,426	1536,703
1	0,000	104,426	1537,006
1	0,000	104,426	1537,006
1	0,000	104,426	1537,106
1	0,000	104,426	1537,207
1	0,000	104,476	1537,408
1	0,000	104,476	1537,509
1	0,000	104,476	1537,610
1	0,000	104,476	1537,711
1	0,000	104,476	1538,013
1	0,000	104,526	1537,912
1	0,000	104,526	1538,113
1	0,000	104,526	1538,214
1	0,000	104,526	1538,214
1	0,000	104,526	1538,416
1	0,000	104,576	1538,416
1	0,000	104,576	1538,919
1	0,000	104,576	1538,919
1	0,000	104,576	1539,020
1	0,000	104,576	1539,120
1	0,000	104,626	1539,423
1	0,000	104,626	1539,624
1	0,000	104,626	1539,423
1	0,000	104,626	1539,725
1	0,000	104,626	1539,725
1	0,000	104,676	1539,523
1	0,000	104,676	1540,128
1	0,000	104,676	1540,128
1	0,000	104,676	1540,329
1	0,000	104,676	1540,430
1	0,000	104,726	1540,631
1	0,000	104,726	1540,631
1	0,000	104,726	1540,833
1	0,000	104,726	1540,833
1	0,000	104,726	1541,135
1	0,000	104,776	1541,235
1	0,000	104,776	1541,336
1	0,000	104,776	1541,437
1	0,000	104,776	1541,638
1	0,000	104,776	2019,397
1	0,000	104,826	1541,638
1	0,000	104,826	1541,940
1	0,000	104,826	1542,041
1	0,000	104,826	1542,343
1	0,000	104,826	1542,545
1	0,000	104,826	1542,545
1	0,000	104,876	1542,645
1	0,000	104,876	1542,746
1	0,000	104,876	1542,947
1	0,000	104,876	1542,947
1	0,000	104,876	1543,149
1	0,000	104,926	1543,149
1	0,000	104,926	1543,350
1	0,000	104,926	1543,451
1	0,000	104,926	1543,753
1	0,000	104,926	1543,753
1	0,000	104,976	1543,854
1	0,000	104,976	1544,055
1	0,000	104,976	1544,156
1	0,000	104,976	1544,257
1	0,000	104,976	1544,357
1	0,000	105,026	1544,458
1	0,000	105,026	1544,760
1	0,000	105,026	1544,962
1	0,000	105,026	1544,962
1	0,000	105,026	1545,264
1	0,000	105,076	1545,364
1	0,000	105,076	1545,364
1	0,000	105,076	1545,566
1	0,000	105,076	1545,767
1	0,000	105,076	1545,969
1	0,000	105,126	1545,969
1	0,000	105,126	1546,170
1	0,000	105,126	1546,069
1	0,000	105,126	1546,371
1	0,000	105,126	1546,069
1	0,000	105,176	1546,371
1	0,000	105,176	1546,674
1	0,000	105,176	1547,076
1	0,000	105,176	1547,076
1	0,000	105,176	1547,177
1	0,000	105,226	1547,177
1	0,000	105,226	1547,076
1	0,000	105,226	1547,479
1	0,000	105,226	1547,479
1	0,000	105,226	1547,781
1	0,000	105,277	1547,681
1	0,000	105,277	1547,882
1	0,000	105,277	1547,983
1	0,000	105,277	1548,184
1	0,000	105,277	1548,285
1	0,000	105,327	1548,386
1	0,000	105,327	1548,486
1	0,000	105,327	1548,688
1	0,000	105,327	1548,889
1	0,000	105,327	1548,990
1	0,000	105,377	1549,191
1	0,000	105,377	1549,292
1	0,000	105,377	1549,594
1	0,000	105,377	1549,695
1	0,000	105,377	1549,896
1	0,000	105,427	1549,997
1	0,000	105,427	1550,198
1	0,000	105,427	1550,299
1	0,000	105,427	1550,500
1	0,000	105,427	1550,500
1	0,000	105,477	1550,500
1	0,000	105,477	1550,803
1	0,000	105,477	1551,105
1	0,000	105,477	1551,004
1	0,000	105,477	1551,105
1	0,000	105,527	1551,205
1	0,000	105,527	1551,105
1	0,000	105,527	1551,508
1	0,000	105,527	1551,608
1	0,000	105,527	1551,810
1	0,000	105,577	1551,910
1	0,000	105,577	1552,011
1	0,000	105,577	1552,213
1	0,000	105,577	1552,213
1	0,000	105,577	1552,313
1	0,000	105,627	1552,615
1	0,000	105,627	1552,615
1	0,000	105,627	1552,615
1	0,000	105,627	1552,716
1	0,000	105,627	1552,917
1	0,000	105,678	1553,119
1	0,000	105,678	1553,522
1	0,000	105,678	1553,522
1	0,000	105,678	1553,723
1	0,000	105,678	1553,824
1	0,000	105,727	1554,025
1	0,000	105,727	1554,126
1	0,000	105,727	1554,227
1	0,000	105,727	1554,428
1	0,000	105,727	1554,529
1	0,000	105,778	1554,730
1	0,000	105,778	1554,730
1	0,000	105,778	1554,831
1	0,000	105,778	1555,032
1	0,000	105,778	1555,133
1	0,000	105,828	1555,234
1	0,000	105,828	1555,133
1	0,000	105,828	1555,234
1	0,000	105,828	1555,637
1	0,000	105,828	1555,737
1	0,000	105,878	1555,838
1	0,000	105,878	1556,039
1	0,000	105,878	1556,140
1	0,000	105,878	1556,140
1	0,000	105,878	1556,241
1	0,000	105,928	1556,241
1	0,000	105,928	1556,442
1	0,000	105,928	1556,342
1	0,000	105,928	1556,644
1	0,000	105,928	1556,744
1	0,000	105,978	1556,946
1	0,000	105,978	1557,147
1	0,000	105,978	1557,147
1	0,000	105,978	1557,349
1	0,000	105,978	1557,449
1	0,000	106,028	1557,651
1	0,000	106,028	1557,751
1	0,000	106,028	1557,651
1	0,000	106,028	1558,154
1	0,000	106,028	1558,154
1	0,000	106,079	1558,557
1	0,000	106,079	1558,658
1	0,000	106,079	1558,859
1	0,000	106,079	1559,061
1	0,000	106,079	1559,061
1	0,000	106,128	1559,262
1	0,000	106,128	1559,061
1	0,000	106,128	1559,665
1	0,000	106,128	1559,665
1	0,000	106,128	1559,766
1	0,000	106,179	1559,866
1	0,000	106,179	1560,068
1	0,000	106,179	1560,168
1	0,000	106,179	1560,269
1	0,000	106,179	1560,370
1	0,000	106,229	1560,571
1	0,000	106,229	1560,571
1	0,000	106,229	1560,773
1	0,000	106,229	1560,873
1	0,000	106,229	1560,873
1	0,000	106,279	1561,075
1	0,000	106,279	1561,276
1	0,000	106,279	1561,377
1	0,000	106,279	1561,478
1	0,000	106,279	1561,679
1	0,000	106,330	1561,578
1	0,000	106,330	1561,780
1	0,000	106,330	1561,880
1	0,000	106,330	1561,981
1	0,000	106,330	1561,981
1	0,000	106,380	1562,283
1	0,000	106,380	1562,585
1	0,000	106,380	1562,988
1	0,000	106,380	1563,089
1	0,000	106,380	1563,190
1	0,000	106,430	1563,290
1	0,000	106,430	1563,492
1	0,000	106,430	1563,593
1	0,000	106,430	1563,693
1	0,000	106,430	1563,794
1	0,000	106,480	1563,995
1	0,000	106,480	1564,096
1	0,000	106,480	1564,398
1	0,000	106,480	1564,398
1	0,000	106,480	1564,499
1	0,000	106,530	1564,600
1	0,000	106,530	1564,700
1	0,000	106,530	1564,902
1	0,000	106,530	1565,002
1	0,000	106,530	1565,103
1	0,000	106,580	1565,204
1	0,000	106,580	1565,204
1	0,000	106,580	1565,506
1	0,000	106,580	1565,707
1	0,000	106,580	1565,808
1	0,000	106,630	1566,010
1	0,000	106,630	1566,110
1	0,000	106,630	1566,110
1	0,000	106,630	1566,312
1	0,000	106,630	1566,513
1	0,000	106,680	1566,614
1	0,000	106,680	1566,916
1	0,000	106,680	1567,017
1	0,000	106,680	1567,218
1	0,000	106,680	1567,218
1	0,000	106,730	1567,319
1	0,000	106,730	1567,520
1	0,000	106,730	1567,722
1	0,000	106,730	1567,822
1	0,000	106,730	1567,923
1	0,000	106,780	1568,124
1	0,000	106,780	1568,124
1	0,000	106,780	1568,326
1	0,000	106,780	1568,527
1	0,000	106,780	1568,829
1	0,000	106,830	1568,729
1	0,000	106,830	1568,829
1	0,000	106,830	1569,031
1	0,000	106,830	1569,131
1	0,000	106,830	1569,232
1	0,000	106,881	1569,434
1	0,000	106,881	1569,534
1	0,000	106,881	1569,635
1	0,000	106,881	1569,736
1	0,000	106,881	1569,836
1	0,000	106,931	1570,038
1	0,000	106,931	1570,239
1	0,000	106,931	1570,340
1	0,000	106,931	1570,541
1	0,000	106,931	1570,743
1	0,000	106,980	1570,743
1	0,000	106,980	1570,944
1	0,000	106,980	1571,146
1	0,000	106,980	1571,246
1	0,000	106,980	1571,448
1	0,000	107,030	1571,548
1	0,000	107,030	1571,750
1	0,000	107,030	1571,851
1	0,000	107,030	1572,052
1	0,000	107,030	1572,052
1	0,000	107,080	1572,253
1	0,000	107,080	1572,354
1	0,000	107,080	1572,556
1	0,000	107,080	1572,656
1	0,000	107,080	1572,858
1	0,000	107,130	1572,958
1	0,000	107,130	1573,160
1	0,000	107,130	1573,260
1	0,000	107,130	1573,361
1	0,000	107,130	1573,462
1	0,000	107,181	1573,563
1	0,000	107,181	1573,663
1	0,000	107,181	1573,764
1	0,000	107,181	1573,865
1	0,000	107,181	1574,066
1	0,000	107,230	1574,268
1	0,000	107,230	1574,368
1	0,000	107,230	1574,570
1	0,000	107,230	1574,670
1	0,000	107,230	1574,771
1	0,000	107,280	1574,973
1	0,000	107,280	1575,073
1	0,000	107,280	1575,174
1	0,000	107,280	1575,275
1	0,000	107,280	1575,476
1	0,000	107,330	1575,577
1	0,000	107,330	1575,879
1	0,000	107,330	1575,980
1	0,000	107,330	1576,181
1	0,000	107,330	1576,282
1	0,000	107,380	1576,483
1	0,000	107,380	1576,584
1	0,000	107,380	1576,584
1	0,000	107,380	1576,886
1	0,000	107,380	1576,987
1	0,000	107,430	1577,087
1	0,000	107,430	1577,289
1	0,000	107,430	1577,390
1	0,000	107,430	1577,591
1	0,000	107,430	1577,692
1	0,000	107,480	1577,893
1	0,000	107,480	1577,994
1	0,000	107,480	1578,094
1	0,000	107,480	1578,195
1	0,000	107,480	1578,397
1	0,000	107,531	1578,497
1	0,000	107,531	1578,598
1	0,000	107,531	1578,699
1	0,000	107,531	1578,900
1	0,000	107,531	1579,102
1	0,000	107,581	1579,202
1	0,000	107,581	1579,303
1	0,000	107,581	1579,404
1	0,000	107,581	1579,605
1	0,000	107,581	1579,706
1	0,000	107,630	1579,907
1	0,000	107,630	1580,008
1	0,000	107,630	1580,109
1	0,000	107,630	1580,310
1	0,000	107,630	1580,411
1	0,000	107,680	1580,713
1	0,000	107,680	1580,814
1	0,000	107,680	1581,015
1	0,000	107,680	1581,116
1	0,000	107,680	1581,216
1	0,000	107,730	1581,418
1	0,000	107,730	1581,519
1	0,000	107,730	1581,619
1	0,000	107,730	1581,821
1	0,000	107,730	1581,921
1	0,000	107,730	1582,022
1	0,000	107,781	1582,022
1	0,000	107,781	1582,324
1	0,000	107,781	1582,526
1	0,000	107,781	1582,626
1	0,000	107,831	1582,727
1	0,000	107,831	1582,928
1	0,000	107,831	1582,928
1	0,000	107,831	1583,130
1	0,000	107,831	1583,231
1	0,000	107,881	1583,331
1	0,000	107,881	1583,734
1	0,000	107,881	1583,734
1	0,000	107,881	1583,835
1	0,000	107,881	1584,036
1	0,000	107,931	1584,137
1	0,000	107,931	1584,238
1	0,000	107,931	1584,338
1	0,000	107,931	1584,540
1	0,000	107,931	1584,641
1	0,000	107,981	1584,842
1	0,000	107,981	1585,144
1	0,000	107,981	1585,245
1	0,000	107,981	1585,446
1	0,000	107,981	1585,144
1	0,000	108,031	1585,748
1	0,000	108,031	1585,748
1	0,000	108,031	1585,950
1	0,000	108,031	1586,050
1	0,000	108,031	1586,151
1	0,000	108,082	1586,353
1	0,000	108,082	1586,353
1	0,000	108,082	1586,554
1	0,000	108,082	1586,655
1	0,000	108,082	1586,856
1	0,000	108,131	1586,856
1	0,000	108,131	1587,057
1	0,000	108,131	1587,259
1	0,000	108,131	1587,360
1	0,000	108,131	1587,561
1	0,000	108,182	1587,561
1	0,000	108,182	1587,762
1	0,000	108,182	1587,762
1	0,000	108,182	1588,065
1	0,000	108,182	1588,165
1	0,000	108,231	1588,266
1	0,000	108,231	1588,467
1	0,000	108,231	1588,568
1	0,000	108,231	1588,770
1	0,000	108,231	1588,870
1	0,000	108,282	1588,971
1	0,000	108,282	1589,172
1	0,000	108,282	1589,273
1	0,000	108,282	1589,374
1	0,000	108,282	1589,575
1	0,000	108,332	1589,676
1	0,000	108,332	1589,474
1	0,000	108,332	1590,079
1	0,000	108,332	1590,179
1	0,000	108,332	1590,381
1	0,000	108,382	1590,482
1	0,000	108,382	1590,683
1	0,000	108,382	1590,784
1	0,000	108,382	1590,884
1	0,000	108,382	1590,985
1	0,000	108,432	1591,187
1	0,000	108,432	1591,388
1	0,000	108,432	1591,489
1	0,000	108,432	1591,589
1	0,000	108,432	1591,589
1	0,000	108,482	1591,891
1	0,000	108,482	1591,992
1	0,000	108,482	1592,093
1	0,000	108,482	1592,194
1	0,000	108,482	1592,395
1	0,000	108,532	1592,496
1	0,000	108,532	1592,596
1	0,000	108,532	1592,798
1	0,000	108,532	1592,999
1	0,000	108,532	1592,999
1	0,000	108,532	1592,395
1	0,000	108,583	1593,503
1	0,000	108,583	1593,604
1	0,000	108,583	1593,805
1	0,000	108,583	1593,906
1	0,000	108,632	1594,006
1	0,000	108,632	1593,503
1	0,000	108,632	1594,208
1	0,000	108,632	1594,510
1	0,000	108,632	1594,611
1	0,000	108,632	1594,812
1	0,000	108,683	1595,013
1	0,000	108,683	1595,114
1	0,000	108,683	1595,215
1	0,000	108,683	1595,416
1	0,000	108,683	1595,416
1	0,000	108,733	1594,812
1	0,000	108,733	1595,819
1	0,000	108,733	1595,920
1	0,000	108,733	1596,021
1	0,000	108,733	1596,121
1	0,000	108,783	1596,423
1	0,000	108,783	1596,524
1	0,000	108,783	1596,625
1	0,000	108,783	1596,725
1	0,000	108,783	1596,826
1	0,000	108,834	1596,927
1	0,000	108,834	1597,128
1	0,000	108,834	1597,330
1	0,000	108,834	1597,430
1	0,000	108,834	1597,632
1	0,000	108,883	1597,733
1	0,000	108,883	1598,035
1	0,000	108,883	1598,035
1	0,000	108,883	1598,135
1	0,000	108,883	1598,337
1	0,000	108,934	1598,437
1	0,000	108,934	1598,538
1	0,000	108,934	1598,740
1	0,000	108,934	1598,840
1	0,000	108,984	1599,042
1	0,000	108,984	1599,243
1	0,000	108,984	1599,445
1	0,000	108,984	1599,445
1	0,000	108,984	1599,747
1	0,000	108,984	1599,847
1	0,000	109,034	1600,150
1	0,000	109,034	1600,250
1	0,000	109,034	1600,351
1	0,000	109,034	1600,552
1	0,000	109,034	1600,653
1	0,000	109,084	1600,653
1	0,000	109,084	1600,955
1	0,000	109,084	1601,056
1	0,000	109,084	1601,157
1	0,000	109,084	1601,358
1	0,000	109,134	1601,459
1	0,000	109,134	1601,559
1	0,000	109,134	1601,761
1	0,000	109,134	1601,862
1	0,000	109,134	1602,063
1	0,000	109,184	1601,962
1	0,000	109,184	1601,962
1	0,000	109,184	1602,466
1	0,000	109,184	1602,567
1	0,000	109,184	1602,768
1	0,000	109,234	1602,969
1	0,000	109,234	1603,070
1	0,000	109,234	1603,171
1	0,000	109,234	1603,271
1	0,000	109,234	1603,372
1	0,000	109,285	1603,473
1	0,000	109,285	1603,674
1	0,000	109,285	1603,775
1	0,000	109,285	1603,876
1	0,000	109,285	1604,077
1	0,000	109,335	1604,279
1	0,000	109,335	1604,480
1	0,000	109,335	1604,681
1	0,000	109,335	1604,883
1	0,000	109,335	1604,984
1	0,000	109,384	1605,185
1	0,000	109,384	1605,386
1	0,000	109,384	1605,487
1	0,000	109,384	1605,588
1	0,000	109,384	1605,789
1	0,000	109,434	1605,890
1	0,000	109,434	1606,091
1	0,000	109,434	1606,091
1	0,000	109,434	1606,293
1	0,000	109,434	1606,393
1	0,000	109,485	1606,696
1	0,000	109,485	1606,696
1	0,000	109,485	1606,796
1	0,000	109,485	1606,998
1	0,000	109,485	1606,998
1	0,000	109,535	1607,098
1	0,000	109,535	1607,300
1	0,000	109,535	1607,602
1	0,000	109,535	1607,703
1	0,000	109,535	1607,803
1	0,000	109,585	1607,803
1	0,000	109,585	1608,005
1	0,000	109,585	1608,206
1	0,000	109,585	1608,307
1	0,000	109,585	1608,408
1	0,000	109,636	1608,609
1	0,000	109,636	1608,609
1	0,000	109,636	1608,911
1	0,000	109,636	1609,113
1	0,000	109,636	1609,213
1	0,000	109,686	1609,314
1	0,000	109,686	1609,515
1	0,000	109,686	1609,717
1	0,000	109,686	1609,818
1	0,000	109,686	1609,918
1	0,000	109,736	1610,220
1	0,000	109,736	1610,321
1	0,000	109,736	1610,321
1	0,000	109,736	1610,522
1	0,000	109,736	1610,623
1	0,000	109,786	1610,724
1	0,000	109,786	1610,925
1	0,000	109,786	1611,127
1	0,000	109,786	1611,026
1	0,000	109,786	1611,429
1	0,000	109,836	1611,328
1	0,000	109,836	1611,731
1	0,000	109,836	1611,832
1	0,000	109,836	1612,033
1	0,000	109,836	1612,134
1	0,000	109,886	1612,335
1	0,000	109,886	1612,436
1	0,000	109,886	1612,537
1	0,000	109,886	1612,738
1	0,000	109,886	1612,839
1	0,000	109,936	1613,141
1	0,000	109,936	1613,242
1	0,000	109,936	1613,342
1	0,000	109,936	1613,443
1	0,000	109,936	1613,644
1	0,000	109,986	1613,745
1	0,000	109,986	1613,846
1	0,000	109,986	1614,148
1	0,000	109,986	1614,249
1	0,000	109,986	1614,450
1	0,000	110,036	1614,450
1	0,000	110,036	1614,752
1	0,000	110,036	1614,853
1	0,000	110,036	1615,054
1	0,000	110,036	1615,054
1	0,000	110,086	1615,256
1	0,000	110,086	1615,256
1	0,000	110,086	1615,558
1	0,000	110,086	1615,457
1	0,000	110,086	1615,860
1	0,000	110,136	1615,961
1	0,000	110,136	1615,961
1	0,000	110,136	1616,464
1	0,000	110,136	1616,666
1	0,000	110,136	1616,666
1	0,000	110,186	1616,766
1	0,000	110,186	1616,968
1	0,000	110,186	1617,068
1	0,000	110,186	1617,169
1	0,000	110,186	1617,471
1	0,000	110,236	1617,572
1	0,000	110,236	1617,673
1	0,000	110,236	1617,874
1	0,000	110,236	1618,076
1	0,000	110,236	1618,176
1	0,000	110,286	1618,277
1	0,000	110,286	1618,579
1	0,000	110,286	1618,680
1	0,000	110,286	1618,781
1	0,000	110,286	1618,982
1	0,000	110,336	1619,183
1	0,000	110,336	1619,284
1	0,000	110,336	1619,485
1	0,000	110,336	1619,687
1	0,000	110,336	1619,687
1	0,000	110,385	1619,989
1	0,000	110,385	1620,090
1	0,000	110,385	1620,190
1	0,000	110,385	1620,291
1	0,000	110,385	1620,493
1	0,000	110,436	1620,694
1	0,000	110,436	1620,895
1	0,000	110,436	1620,996
1	0,000	110,436	1621,097
1	0,000	110,436	1621,298
1	0,000	110,486	1621,500
1	0,000	110,486	1621,600
1	0,000	110,486	1621,701
1	0,000	110,486	1621,802
1	0,000	110,486	1622,003
1	0,000	110,536	1622,104
1	0,000	110,536	1622,205
1	0,000	110,536	1622,406
1	0,000	110,536	1622,507
1	0,000	110,536	1622,809
1	0,000	110,586	1622,910
1	0,000	110,586	1623,010
1	0,000	110,586	1623,212
1	0,000	110,586	1623,413
1	0,000	110,586	1623,514
1	0,000	110,636	1623,615
1	0,000	110,636	1623,715
1	0,000	110,636	1623,917
1	0,000	110,636	1624,017
1	0,000	110,636	1624,219
1	0,000	110,686	1624,420
1	0,000	110,686	1624,521
1	0,000	110,686	1624,722
1	0,000	110,686	1624,924
1	0,000	110,686	1625,125
1	0,000	110,735	1625,226
1	0,000	110,735	1625,327
1	0,000	110,735	1625,427
1	0,000	110,735	1625,629
1	0,000	110,735	1625,729
1	0,000	110,786	1625,931
1	0,000	110,786	1626,031
1	0,000	110,786	1626,233
1	0,000	110,786	1626,334
1	0,000	110,786	1626,535
1	0,000	110,836	1626,736
1	0,000	110,836	1626,938
1	0,000	110,836	1627,039
1	0,000	110,836	1627,139
1	0,000	110,836	1627,341
1	0,000	110,886	1627,441
1	0,000	110,886	1627,643
1	0,000	110,886	1627,945
1	0,000	110,886	1628,146
1	0,000	110,886	1628,146
1	0,000	110,936	1628,348
1	0,000	110,936	1628,448
1	0,000	110,936	1628,549
1	0,000	110,936	1628,751
1	0,000	110,936	1628,952
1	0,000	110,986	1629,053
1	0,000	110,986	1629,254
1	0,000	110,986	1629,355
1	0,000	110,986	1629,456
1	0,000	110,986	1629,657
1	0,000	111,036	1629,858
1	0,000	111,036	1630,060
1	0,000	111,036	1629,959
1	0,000	111,036	1630,261
1	0,000	111,036	1630,362
1	0,000	111,086	1630,563
1	0,000	111,086	1630,865
1	0,000	111,086	1630,865
1	0,000	111,086	1630,865
1	0,000	111,086	1631,168
1	0,000	111,136	1631,369
1	0,000	111,136	1631,470
1	0,000	111,136	1631,671
1	0,000	111,136	1631,772
1	0,000	111,136	1631,873
1	0,000	111,186	1632,074
1	0,000	111,186	1632,175
1	0,000	111,186	1632,376
1	0,000	111,186	1632,578
1	0,000	111,186	1632,678
1	0,000	111,237	1632,880
1	0,000	111,237	1632,980
1	0,000	111,237	1633,182
1	0,000	111,237	1633,282
1	0,000	111,237	1633,484
1	0,000	111,286	1633,685
1	0,000	111,286	1633,887
1	0,000	111,286	1633,887
1	0,000	111,286	1634,088
1	0,000	111,286	1634,189
1	0,000	111,337	1634,390
1	0,000	111,337	1634,592
1	0,000	111,337	1634,592
1	0,000	111,337	1634,894
1	0,000	111,337	1634,995
1	0,000	111,387	1635,095
1	0,000	111,387	1635,297
1	0,000	111,387	1635,498
1	0,000	111,387	1635,599
1	0,000	111,387	1635,800
1	0,000	111,438	1635,800
1	0,000	111,438	1636,002
1	0,000	111,438	1636,304
1	0,000	111,438	1636,304
1	0,000	111,438	1636,505
1	0,000	111,488	1636,707
1	0,000	111,488	1636,807
1	0,000	111,488	1637,009
1	0,000	111,488	1637,109
1	0,000	111,488	1637,311
1	0,000	111,538	1637,411
1	0,000	111,538	1637,613
1	0,000	111,538	1637,814
1	0,000	111,538	1637,915
1	0,000	111,538	1638,016
1	0,000	111,588	1638,217
1	0,000	111,588	1638,419
1	0,000	111,588	1638,519
1	0,000	111,588	1638,721
1	0,000	111,588	1638,922
1	0,000	111,638	1638,922
1	0,000	111,638	1639,124
1	0,000	111,638	1639,224
1	0,000	111,638	1639,325
1	0,000	111,638	1639,627
1	0,000	111,688	1639,627
1	0,000	111,688	1640,030
1	0,000	111,688	1640,131
1	0,000	111,688	1640,332
1	0,000	111,688	1640,433
1	0,000	111,737	1640,533
1	0,000	111,737	1640,634
1	0,000	111,737	1641,037
1	0,000	111,737	1641,037
1	0,000	111,737	1641,138
1	0,000	111,788	1641,238
1	0,000	111,788	1641,440
1	0,000	111,788	1641,641
1	0,000	111,788	1641,641
1	0,000	111,788	1641,943
1	0,000	111,838	1642,044
1	0,000	111,838	1642,245
1	0,000	111,838	1642,346
1	0,000	111,838	1642,648
1	0,000	111,838	1642,749
1	0,000	111,889	1642,850
1	0,000	111,889	1643,051
1	0,000	111,889	1643,152
1	0,000	111,889	1643,353
1	0,000	111,889	1643,454
1	0,000	111,939	1643,655
1	0,000	111,939	1643,857
1	0,000	111,939	1643,857
1	0,000	111,939	1644,260
1	0,000	111,939	1644,360
1	0,000	111,988	1644,461
1	0,000	111,988	1644,562
1	0,000	111,988	1644,763
1	0,000	111,988	1644,965
1	0,000	111,988	1645,065
1	0,000	112,038	1645,166
1	0,000	112,038	1645,267
1	0,000	112,038	1645,468
1	0,000	112,038	1645,670
1	0,000	112,038	1645,972
1	0,000	112,089	1646,072
1	0,000	112,089	1646,274
1	0,000	112,089	1646,375
1	0,000	112,089	1646,475
1	0,000	112,089	1646,677
1	0,000	112,139	1646,777
1	0,000	112,139	1646,979
1	0,000	112,139	1647,180
1	0,000	112,139	1647,281
1	0,000	112,139	1647,482
1	0,000	112,189	1647,583
1	0,000	112,189	1647,784
1	0,000	112,189	1647,885
1	0,000	112,189	1648,187
1	0,000	112,189	1648,187
1	0,000	112,238	1648,288
1	0,000	112,238	1648,489
1	0,000	112,238	1648,691
1	0,000	112,238	1648,892
1	0,000	112,238	1649,194
1	0,000	112,288	1650,101
1	0,000	112,288	1649,396
1	0,000	112,288	1651,309
1	0,000	112,288	1649,597
1	0,000	112,288	1649,698
1	0,000	112,339	1650,000
1	0,000	112,339	1650,101
1	0,000	112,339	1650,000
1	0,000	112,339	1650,604
1	0,000	112,339	1650,604
1	0,000	112,389	1650,806
1	0,000	112,389	1650,906
1	0,000	112,389	1651,108
1	0,000	112,389	1651,309
1	0,000	112,389	1651,410
1	0,000	112,439	1651,511
1	0,000	112,439	1651,611
1	0,000	112,439	1651,813
1	0,000	112,439	1652,115
1	0,000	112,439	1652,115
1	0,000	112,488	1652,417
1	0,000	112,488	1652,518
1	0,000	112,488	1652,618
1	0,000	112,488	1652,719
1	0,000	112,488	1653,021
1	0,000	112,539	1653,122
1	0,000	112,539	1653,223
1	0,000	112,539	1653,424
1	0,000	112,539	1653,625
1	0,000	112,539	1653,827
1	0,000	112,588	1653,827
1	0,000	112,588	1654,129
1	0,000	112,588	1654,230
1	0,000	112,588	1654,431
1	0,000	112,588	1654,532
1	0,000	112,639	1654,733
1	0,000	112,639	1654,935
1	0,000	112,639	1655,136
1	0,000	112,639	1655,338
1	0,000	112,639	1655,438
1	0,000	112,689	1655,640
1	0,000	112,689	1655,841
1	0,000	112,689	1655,841
1	0,000	112,689	1656,143
1	0,000	112,689	1656,143
1	0,000	112,739	1656,345
1	0,000	112,739	1656,647
1	0,000	112,739	1656,747
1	0,000	112,739	1656,848
1	0,000	112,739	1657,050
1	0,000	112,789	1657,150
1	0,000	112,789	1657,251
1	0,000	112,789	1657,352
1	0,000	112,789	1657,553
1	0,000	112,789	1657,855
1	0,000	112,839	1657,654
1	0,000	112,839	1658,258
1	0,000	112,839	1658,258
1	0,000	112,839	1658,359
1	0,000	112,839	1658,661
1	0,000	112,890	1658,762
1	0,000	112,890	1658,963
1	0,000	112,890	1659,064
1	0,000	112,890	1659,265
1	0,000	112,890	1659,366
1	0,000	112,939	1659,567
1	0,000	112,939	1659,668
1	0,000	112,939	1659,769
1	0,000	112,939	1659,970
1	0,000	112,939	1660,071
1	0,000	112,990	1660,272
1	0,000	112,990	1660,172
1	0,000	112,990	1660,675
1	0,000	112,990	1660,776
1	0,000	112,990	1660,977
1	0,000	113,040	1661,078
1	0,000	113,040	1661,179
1	0,000	113,040	1661,380
1	0,000	113,040	1661,581
1	0,000	113,040	1661,682
1	0,000	113,040	1661,984
1	0,000	113,090	1662,085
1	0,000	113,090	1662,186
1	0,000	113,090	1662,387
1	0,000	113,090	1662,589
1	0,000	113,140	1662,689
1	0,000	113,140	1662,891
1	0,000	113,140	1662,991
1	0,000	113,140	1663,193
1	0,000	113,140	1663,293
1	0,000	113,190	1663,495
1	0,000	113,190	1663,394
1	0,000	113,190	1663,898
1	0,000	113,190	1663,998
1	0,000	113,190	1664,200
1	0,000	113,240	1664,401
1	0,000	113,240	1664,502
1	0,000	113,240	1664,603
1	0,000	113,240	1664,804
1	0,000	113,240	1664,905
1	0,000	113,290	1665,106
1	0,000	113,290	1665,207
1	0,000	113,290	1665,408
1	0,000	113,290	1665,509
1	0,000	113,290	1665,811
1	0,000	113,340	1665,912
1	0,000	113,340	1666,113
1	0,000	113,340	1666,315
1	0,000	113,340	1666,415
1	0,000	113,340	1666,617
1	0,000	113,390	1666,818
1	0,000	113,390	1666,919
1	0,000	113,390	1667,120
1	0,000	113,390	1667,221
1	0,000	113,390	1667,422
1	0,000	113,440	1667,523
1	0,000	113,440	1667,624
1	0,000	113,440	1667,825
1	0,000	113,440	1668,027
1	0,000	113,440	1668,228
1	0,000	113,440	1668,329
1	0,000	113,490	1668,530
1	0,000	113,490	1668,631
1	0,000	113,490	1668,832
1	0,000	113,490	1669,034
1	0,000	113,540	1669,135
1	0,000	113,540	1669,336
1	0,000	113,540	1669,437
1	0,000	113,540	1669,638
1	0,000	113,540	1669,839
1	0,000	113,590	1670,041
1	0,000	113,590	1670,142
1	0,000	113,590	1670,343
1	0,000	113,590	1670,645
1	0,000	113,590	1670,746
1	0,000	113,640	1670,847
1	0,000	113,640	1670,947
1	0,000	113,640	1671,149
1	0,000	113,640	1671,350
1	0,000	113,640	1671,451
1	0,000	113,640	1671,652
1	0,000	113,690	1671,753
1	0,000	113,690	1671,954
1	0,000	113,690	1672,055
1	0,000	113,690	1672,055
1	0,000	113,690	1672,458
1	0,000	113,740	1672,559
1	0,000	113,740	1672,760
1	0,000	113,740	1672,861
1	0,000	113,740	1673,062
1	0,000	113,790	1673,264
1	0,000	113,790	1673,364
1	0,000	113,790	1673,465
1	0,000	113,790	1673,666
1	0,000	113,790	1673,868
1	0,000	113,790	1674,069
1	0,000	113,840	1674,170
1	0,000	113,840	1674,371
1	0,000	113,840	1674,472
1	0,000	113,840	1674,673
1	0,000	113,840	1674,875
1	0,000	113,890	1675,076
1	0,000	113,890	1675,177
1	0,000	113,890	1675,378
1	0,000	113,890	1675,580
1	0,000	113,890	1675,681
1	0,000	113,940	1675,882
1	0,000	113,940	1676,083
1	0,000	113,940	1676,184
1	0,000	113,940	1676,285
1	0,000	113,940	1676,486
1	0,000	113,990	1676,688
1	0,000	113,990	1676,889
1	0,000	113,990	1676,990
1	0,000	113,990	1676,889
1	0,000	114,040	1677,090
1	0,000	114,040	1677,695
1	0,000	114,040	1677,695
1	0,000	114,040	1677,795
1	0,000	114,040	1677,997
1	0,000	114,040	1678,098
1	0,000	114,090	1678,299
1	0,000	114,090	1678,500
1	0,000	114,090	1678,601
1	0,000	114,090	1678,802
1	0,000	114,090	1679,004
1	0,000	114,140	1679,205
1	0,000	114,140	1679,306
1	0,000	114,140	1679,507
1	0,000	114,140	1679,608
1	0,000	114,140	1679,709
1	0,000	114,190	1679,910
1	0,000	114,190	1680,112
1	0,000	114,190	1680,313
1	0,000	114,190	1680,414
1	0,000	114,190	1680,615
1	0,000	114,241	1680,917
1	0,000	114,241	1680,917
1	0,000	114,241	1681,018
1	0,000	114,241	1681,219
1	0,000	114,241	1681,522
1	0,000	114,291	1681,723
1	0,000	114,291	1681,824
1	0,000	114,291	1681,924
1	0,000	114,291	1682,126
1	0,000	114,291	1682,227
1	0,000	114,340	1682,428
1	0,000	114,340	1682,529
1	0,000	114,340	1682,629
1	0,000	114,340	1682,932
1	0,000	114,340	1683,133
1	0,000	114,390	1683,234
1	0,000	114,390	1683,435
1	0,000	114,390	1683,737
1	0,000	114,390	1683,737
1	0,000	114,390	1683,838
1	0,000	114,441	1684,039
1	0,000	114,441	1684,140
1	0,000	114,441	1684,341
1	0,000	114,441	1684,543
1	0,000	114,441	1684,644
1	0,000	114,491	1684,744
1	0,000	114,491	1684,946
1	0,000	114,491	1685,248
1	0,000	114,491	1685,248
1	0,000	114,491	1685,449
1	0,000	114,541	1685,651
1	0,000	114,541	1685,852
1	0,000	114,541	1686,053
1	0,000	114,541	1686,154
1	0,000	114,541	1686,356
1	0,000	114,592	1686,557
1	0,000	114,592	1686,658
1	0,000	114,592	1686,859
1	0,000	114,592	1687,061
1	0,000	114,592	1687,262
1	0,000	114,642	1687,363
1	0,000	114,642	1687,564
1	0,000	114,642	1687,665
1	0,000	114,642	1687,866
1	0,000	114,642	1687,564
1	0,000	114,692	1688,068
1	0,000	114,692	1688,370
1	0,000	114,692	1688,571
1	0,000	114,692	1688,672
1	0,000	114,692	1688,873
1	0,000	114,742	1688,974
1	0,000	114,742	1689,276
1	0,000	114,742	1689,377
1	0,000	114,742	1689,478
1	0,000	114,742	1689,679
1	0,000	114,792	1689,880
1	0,000	114,792	1690,082
1	0,000	114,792	1690,283
1	0,000	114,792	1690,384
1	0,000	114,792	1690,686
1	0,000	114,843	1690,787
1	0,000	114,843	1690,686
1	0,000	114,843	1691,190
1	0,000	114,843	1691,290
1	0,000	114,843	1691,391
1	0,000	114,892	1691,492
1	0,000	114,892	1691,693
1	0,000	114,892	1691,895
1	0,000	114,892	1691,995
1	0,000	114,892	1692,197
1	0,000	114,943	1692,398
1	0,000	114,943	1692,499
1	0,000	114,943	1692,700
1	0,000	114,943	1692,902
1	0,000	114,943	1693,002
1	0,000	114,993	1693,204
1	0,000	114,993	1693,405
1	0,000	114,993	1693,506
1	0,000	114,993	1693,707
1	0,000	114,993	1693,909
1	0,000	115,042	1694,009
1	0,000	115,042	1694,211
1	0,000	115,042	1694,412
1	0,000	115,042	1694,513
1	0,000	115,042	1694,714
1	0,000	115,093	1694,916
1	0,000	115,093	1695,117
1	0,000	115,093	1695,218
1	0,000	115,093	1695,319
1	0,000	115,093	1695,520
1	0,000	115,142	1695,419
1	0,000	115,142	1695,721
1	0,000	115,142	1696,124
1	0,000	115,142	1696,225
1	0,000	115,142	1696,426
1	0,000	115,193	1696,628
1	0,000	115,193	1696,729
1	0,000	115,193	1696,829
1	0,000	115,193	1697,031
1	0,000	115,193	1697,232
1	0,000	115,243	1697,333
1	0,000	115,243	1697,534
1	0,000	115,243	1697,736
1	0,000	115,243	1697,937
1	0,000	115,243	1698,138
1	0,000	115,292	1698,340
1	0,000	115,292	1698,441
1	0,000	115,292	1698,441
1	0,000	115,292	1698,843
1	0,000	115,292	1699,045
1	0,000	115,343	1699,146
1	0,000	115,343	1699,246
1	0,000	115,343	1699,347
1	0,000	115,343	1699,548
1	0,000	115,343	1699,750
1	0,000	115,392	1699,951
1	0,000	115,392	1700,153
1	0,000	115,392	1700,253
1	0,000	115,392	1700,455
1	0,000	115,392	1700,555
1	0,000	115,443	1700,858
1	0,000	115,443	1700,858
1	0,000	115,443	1701,160
1	0,000	115,443	1701,361
1	0,000	115,443	1701,462
1	0,000	115,493	1701,562
1	0,000	115,493	1701,663
1	0,000	115,493	1701,965
1	0,000	115,493	1702,066
1	0,000	115,493	1702,267
1	0,000	115,543	1702,368
1	0,000	115,543	1702,570
1	0,000	115,543	1702,771
1	0,000	115,543	1702,872
1	0,000	115,543	1703,073
1	0,000	115,593	1703,174
1	0,000	115,593	1703,375
1	0,000	115,593	1703,275
1	0,000	115,593	1703,879
1	0,000	115,593	1703,979
1	0,000	115,643	1704,080
1	0,000	115,643	1704,382
1	0,000	115,643	1704,483
1	0,000	115,643	1704,684
1	0,000	115,643	1704,785
1	0,000	115,693	1705,188
1	0,000	115,693	1705,289
1	0,000	115,693	1705,389
1	0,000	115,693	1705,591
1	0,000	115,693	1705,692
1	0,000	115,743	1705,893
1	0,000	115,743	1705,792
1	0,000	115,743	1706,094
1	0,000	115,743	1706,396
1	0,000	115,743	1706,497
1	0,000	115,793	1706,699
1	0,000	115,793	1706,799
1	0,000	115,793	1707,001
1	0,000	115,793	1707,202
1	0,000	115,793	1707,404
1	0,000	115,844	1707,504
1	0,000	115,844	1707,605
1	0,000	115,844	1707,806
1	0,000	115,844	1708,008
1	0,000	115,844	1708,109
1	0,000	115,894	1708,310
1	0,000	115,894	1708,411
1	0,000	115,894	1708,713
1	0,000	115,894	1708,813
1	0,000	115,894	1708,914
1	0,000	115,944	1709,116
1	0,000	115,944	1709,317
1	0,000	115,944	1709,518
1	0,000	115,944	1709,619
1	0,000	115,944	1709,821
1	0,000	115,994	1710,022
1	0,000	115,994	1710,223
1	0,000	115,994	1710,324
1	0,000	115,994	1710,526
1	0,000	115,994	1710,727
1	0,000	116,044	1710,828
1	0,000	116,044	1710,828
1	0,000	116,044	1711,230
1	0,000	116,044	1711,331
1	0,000	116,044	1711,533
1	0,000	116,094	1711,835
1	0,000	116,094	1711,835
1	0,000	116,094	1712,036
1	0,000	116,094	1712,238
1	0,000	116,094	1712,338
1	0,000	116,144	1712,540
1	0,000	116,144	1712,741
1	0,000	116,144	1713,043
1	0,000	116,144	1713,144
1	0,000	116,144	1713,245
1	0,000	116,195	1713,345
1	0,000	116,195	1713,446
1	0,000	116,195	1713,647
1	0,000	116,195	1713,950
1	0,000	116,195	1714,151
1	0,000	116,244	1714,252
1	0,000	116,244	1714,453
1	0,000	116,244	1714,655
1	0,000	116,244	1714,755
1	0,000	116,244	1714,957
1	0,000	116,294	1715,158
1	0,000	116,294	1715,460
1	0,000	116,294	1715,561
1	0,000	116,294	1715,662
1	0,000	116,294	1715,863
1	0,000	116,344	1716,064
1	0,000	116,344	1716,367
1	0,000	116,344	1716,266
1	0,000	116,344	1716,669
1	0,000	116,344	1716,769
1	0,000	116,395	1716,367
1	0,000	116,395	1717,676
1	0,000	116,395	1717,172
1	0,000	116,395	1717,374
1	0,000	116,395	1717,374
1	0,000	116,445	1717,776
1	0,000	116,445	1717,877
1	0,000	116,445	1718,079
1	0,000	116,445	1718,179
1	0,000	116,445	1718,381
1	0,000	116,495	1718,582
1	0,000	116,495	1718,784
1	0,000	116,495	1718,884
1	0,000	116,495	1719,086
1	0,000	116,495	1719,287
1	0,000	116,545	1719,388
1	0,000	116,545	1719,589
1	0,000	116,545	1719,791
1	0,000	116,545	1719,992
1	0,000	116,545	1720,193
1	0,000	116,595	1720,294
1	0,000	116,595	1720,496
1	0,000	116,595	1720,596
1	0,000	116,595	1720,798
1	0,000	116,595	1720,999
1	0,000	116,645	1721,301
1	0,000	116,645	1721,301
1	0,000	116,645	1721,503
1	0,000	116,645	1721,603
1	0,000	116,645	1721,906
1	0,000	116,695	1722,006
1	0,000	116,695	1722,308
1	0,000	116,695	1722,510
1	0,000	116,695	1722,510
1	0,000	116,695	1722,711
1	0,000	116,745	1722,913
1	0,000	116,745	1723,013
1	0,000	116,745	1723,215
1	0,000	116,745	1723,416
1	0,000	116,745	1723,618
1	0,000	116,796	1723,718
1	0,000	116,796	1724,020
1	0,000	116,796	1724,121
1	0,000	116,796	1724,323
1	0,000	116,796	1724,423
1	0,000	116,845	1724,625
1	0,000	116,845	1724,725
1	0,000	116,845	1724,927
1	0,000	116,845	1725,027
1	0,000	116,845	1725,330
1	0,000	116,895	1725,531
1	0,000	116,895	1725,632
1	0,000	116,895	1725,732
1	0,000	116,895	1725,934
1	0,000	116,895	1726,236
1	0,000	116,946	1726,337
1	0,000	116,946	1726,437
1	0,000	116,946	1726,639
1	0,000	116,946	1726,740
1	0,000	116,946	1727,042
1	0,000	116,996	1727,142
1	0,000	116,996	1727,344
1	0,000	116,996	1727,545
1	0,000	116,996	1727,646
1	0,000	116,996	1727,747
1	0,000	117,045	1727,847
1	0,000	117,045	1728,250
1	0,000	117,045	1728,452
1	0,000	117,045	1728,552
1	0,000	117,045	1728,754
1	0,000	117,095	1728,854
1	0,000	117,095	1729,056
1	0,000	117,095	1728,955
1	0,000	117,095	1729,459
1	0,000	117,095	1729,660
1	0,000	117,145	1729,861
1	0,000	117,145	1729,962
1	0,000	117,145	1730,164
1	0,000	117,145	1730,264
1	0,000	117,145	1730,466
1	0,000	117,195	1730,667
1	0,000	117,195	1730,869
1	0,000	117,195	1731,070
1	0,000	117,195	1731,171
1	0,000	117,195	1731,372
1	0,000	117,246	1731,473
1	0,000	117,246	1731,674
1	0,000	117,246	1731,876
1	0,000	117,246	1732,178
1	0,000	117,246	1732,278
1	0,000	117,296	1732,480
1	0,000	117,296	1732,581
1	0,000	117,296	1732,782
1	0,000	117,296	1732,983
1	0,000	117,296	1733,084
1	0,000	117,345	1733,286
1	0,000	117,345	1733,386
1	0,000	117,345	1733,688
1	0,000	117,345	1733,789
1	0,000	117,345	1733,990
1	0,000	117,395	1734,192
1	0,000	117,395	1734,393
1	0,000	117,395	1734,192
1	0,000	117,395	1734,796
1	0,000	117,395	1734,897
1	0,000	117,446	1735,098
1	0,000	117,446	1735,300
1	0,000	117,446	1735,501
1	0,000	117,446	1735,602
1	0,000	117,446	1735,803
1	0,000	117,496	1736,005
1	0,000	117,496	1736,105
1	0,000	117,496	1736,307
1	0,000	117,496	1736,609
1	0,000	117,496	1736,710
1	0,000	117,546	1736,810
1	0,000	117,546	1737,012
1	0,000	117,546	1737,213
1	0,000	117,546	1737,415
1	0,000	117,546	1737,616
1	0,000	117,597	1737,717
1	0,000	117,597	1738,019
1	0,000	117,597	1738,120
1	0,000	117,597	1738,321
1	0,000	117,597	1738,522
1	0,000	117,647	1738,724
1	0,000	117,647	1738,824
1	0,000	117,647	1739,026
1	0,000	117,647	1739,127
1	0,000	117,647	1739,328
1	0,000	117,697	1739,529
1	0,000	117,697	1739,529
1	0,000	117,697	1739,932
1	0,000	117,697	1740,134
1	0,000	117,697	1740,234
1	0,000	117,748	1740,436
1	0,000	117,748	1740,738
1	0,000	117,748	1740,939
1	0,000	117,748	1741,040
1	0,000	117,748	1741,241
1	0,000	117,798	1741,342
1	0,000	117,798	1741,544
1	0,000	117,798	1741,644
1	0,000	117,798	1741,946
1	0,000	117,798	1742,047
1	0,000	117,847	1742,249
1	0,000	117,847	1742,450
1	0,000	117,847	1742,651
1	0,000	117,847	1742,853
1	0,000	117,847	1742,953
1	0,000	117,897	1743,054
1	0,000	117,897	1743,155
1	0,000	117,897	1743,558
1	0,000	117,897	1743,658
1	0,000	117,897	1743,860
1	0,000	117,947	1744,061
1	0,000	117,947	1744,263
1	0,000	117,947	1744,464
1	0,000	117,947	1744,565
1	0,000	117,947	1744,867
1	0,000	117,997	1744,968
1	0,000	117,997	1745,068
1	0,000	117,997	1745,270
1	0,000	117,997	1745,471
1	0,000	117,997	1745,572
1	0,000	118,047	1745,773
1	0,000	118,047	1745,975
1	0,000	118,047	1746,176
1	0,000	118,047	1746,378
1	0,000	118,047	1746,579
1	0,000	118,098	1746,680
1	0,000	118,098	1746,982
1	0,000	118,098	1747,183
1	0,000	118,098	1747,385
1	0,000	118,098	1747,485
1	0,000	118,098	1747,687
1	0,000	118,148	1747,888
1	0,000	118,148	1747,989
1	0,000	118,148	1748,190
1	0,000	118,148	1748,392
1	0,000	118,198	1748,492
1	0,000	118,198	1748,593
1	0,000	118,198	1748,895
1	0,000	118,198	1748,996
1	0,000	118,198	1749,197
1	0,000	118,248	1749,500
1	0,000	118,248	1749,600
1	0,000	118,248	1749,802
1	0,000	118,248	1749,902
1	0,000	118,248	1750,104
1	0,000	118,298	1750,406
1	0,000	118,298	1750,607
1	0,000	118,298	1750,809
1	0,000	118,298	1750,708
1	0,000	118,298	1751,111
1	0,000	118,298	1751,312
1	0,000	118,348	1751,413
1	0,000	118,348	1751,715
1	0,000	118,348	1751,715
1	0,000	118,348	1751,917
1	0,000	118,348	1752,219
1	0,000	118,398	1752,319
1	0,000	118,398	1752,722
1	0,000	118,398	1752,722
1	0,000	118,398	1753,024
1	0,000	118,398	1753,024
1	0,000	118,448	1753,226
1	0,000	118,448	1753,427
1	0,000	118,448	1753,226
1	0,000	118,448	1753,830
1	0,000	118,448	1753,931
1	0,000	118,498	1754,132
1	0,000	118,498	1754,233
1	0,000	118,498	1754,535
1	0,000	118,498	1754,636
1	0,000	118,498	1754,736
1	0,000	118,548	1755,038
1	0,000	118,548	1755,038
1	0,000	118,548	1755,341
1	0,000	118,548	1755,542
1	0,000	118,548	1755,743
1	0,000	118,598	1755,844
1	0,000	118,598	1756,046
1	0,000	118,598	1756,247
1	0,000	118,598	1756,448
1	0,000	118,598	1756,650
1	0,000	118,648	1756,952
1	0,000	118,648	1757,153
1	0,000	118,648	1757,153
1	0,000	118,648	1757,254
1	0,000	118,648	1757,355
1	0,000	118,698	1757,657
1	0,000	118,698	1757,858
1	0,000	118,698	1758,060
1	0,000	118,698	1758,160
1	0,000	118,698	1758,362
1	0,000	118,748	1758,563
1	0,000	118,748	1758,765
1	0,000	118,748	1758,865
1	0,000	118,748	1759,067
1	0,000	118,748	1759,268
1	0,000	118,798	1759,470
1	0,000	118,798	1759,671
1	0,000	118,798	1759,872
1	0,000	118,798	1759,872
1	0,000	118,798	1760,175
1	0,000	118,848	1760,376
1	0,000	118,848	1760,577
1	0,000	118,848	1760,678
1	0,000	118,848	1760,980
1	0,000	118,848	1761,081
1	0,000	118,898	1761,282
1	0,000	118,898	1761,484
1	0,000	118,898	1761,685
1	0,000	118,898	1761,887
1	0,000	118,898	1761,987
1	0,000	118,948	1762,189
1	0,000	118,948	1762,390
1	0,000	118,948	1762,592
1	0,000	118,948	1762,692
1	0,000	118,948	1762,793
1	0,000	118,999	1763,196
1	0,000	118,999	1763,297
1	0,000	118,999	1763,498
1	0,000	118,999	1763,699
1	0,000	118,999	1763,901
1	0,000	119,049	1764,102
1	0,000	119,049	1764,304
1	0,000	119,049	1764,505
1	0,000	119,049	1764,505
1	0,000	119,049	1764,706
1	0,000	119,098	1764,908
1	0,000	119,098	1765,311
1	0,000	119,098	1765,311
1	0,000	119,098	1765,512
1	0,000	119,098	1765,613
1	0,000	119,149	1765,814
1	0,000	119,149	1766,016
1	0,000	119,149	1766,217
1	0,000	119,149	1766,418
1	0,000	119,149	1766,519
1	0,000	119,200	1766,721
1	0,000	119,200	1766,721
1	0,000	119,200	1767,224
1	0,000	119,200	1767,325
1	0,000	119,200	1767,526
1	0,000	119,250	1767,728
1	0,000	119,250	1767,828
1	0,000	119,250	1768,030
1	0,000	119,250	1768,231
1	0,000	119,250	1768,433
1	0,000	119,300	1768,332
1	0,000	119,300	1768,835
1	0,000	119,300	1768,936
1	0,000	119,300	1769,138
1	0,000	119,300	1769,339
1	0,000	119,350	1769,540
1	0,000	119,350	1769,742
1	0,000	119,350	1769,943
1	0,000	119,350	1770,044
1	0,000	119,350	1770,346
1	0,000	119,400	1770,447
1	0,000	119,400	1770,648
1	0,000	119,400	1770,749
1	0,000	119,400	1770,950
1	0,000	119,400	1771,152
1	0,000	119,450	1771,252
1	0,000	119,450	1771,555
1	0,000	119,450	1771,756
1	0,000	119,450	1771,756
1	0,000	119,450	1772,159
1	0,000	119,500	1772,260
1	0,000	119,500	1772,461
1	0,000	119,500	1772,562
1	0,000	119,500	1772,763
1	0,000	119,500	1772,964
1	0,000	119,550	1773,267
1	0,000	119,550	1773,367
1	0,000	119,550	1773,468
1	0,000	119,550	1773,770
1	0,000	119,550	1773,972
1	0,000	119,600	1774,173
1	0,000	119,600	1774,274
1	0,000	119,600	1774,475
1	0,000	119,600	1774,576
1	0,000	119,600	1774,777
1	0,000	119,650	1774,979
1	0,000	119,650	1775,180
1	0,000	119,650	1775,381
1	0,000	119,650	1775,482
1	0,000	119,650	1775,784
1	0,000	119,700	1775,885
1	0,000	119,700	1776,086
1	0,000	119,700	1776,288
1	0,000	119,700	1776,389
1	0,000	119,700	1776,590
1	0,000	119,749	1776,791
1	0,000	119,749	1776,993
1	0,000	119,749	1777,295
1	0,000	119,749	1777,396
1	0,000	119,749	1777,597
1	0,000	119,800	1777,698
1	0,000	119,800	1778,000
1	0,000	119,800	1778,101
1	0,000	119,800	1778,302
1	0,000	119,800	1778,503
1	0,000	119,850	1778,705
1	0,000	119,850	1778,806
1	0,000	119,850	1779,007
1	0,000	119,850	1779,208
1	0,000	119,850	1779,510
1	0,000	119,900	1779,611
1	0,000	119,900	1779,813
1	0,000	119,900	1780,115
1	0,000	119,900	1780,316
1	0,000	119,900	1780,316
1	0,000	119,950	1780,518
1	0,000	119,950	1780,719
1	0,000	119,950	1780,920
1	0,000	119,950	1781,223
1	0,000	119,950	1781,223
1	0,000	120,000	1781,525
1	0,000	120,000	1781,625
1	0,000	120,000	1781,927
1	0,000	120,000	1782,129
1	0,000	120,000	1782,230
1	0,000	120,050	1782,431
1	0,000	120,050	1782,632
1	0,000	120,050	1782,834
1	0,000	120,050	1783,035
1	0,000	120,050	1783,136
1	0,000	120,100	1783,337
1	0,000	120,100	1783,438
1	0,000	120,100	1783,740
1	0,000	120,100	1783,841
1	0,000	120,100	1784,042
1	0,000	120,150	1784,244
1	0,000	120,150	1784,445
1	0,000	120,150	1784,647
1	0,000	120,150	1784,747
1	0,000	120,150	1785,049
1	0,000	120,200	1785,150
1	0,000	120,200	1785,352
1	0,000	120,200	1785,553
1	0,000	120,200	1785,754
1	0,000	120,200	1785,956
1	0,000	120,250	1786,057
1	0,000	120,250	1786,359
1	0,000	120,250	1786,459
1	0,000	120,250	1786,661
1	0,000	120,250	1786,761
1	0,000	120,300	1787,265
1	0,000	120,300	1787,265
1	0,000	120,300	1787,366
1	0,000	120,300	1787,668
1	0,000	120,300	1787,769
1	0,000	120,350	1788,071
1	0,000	120,350	1788,071
1	0,000	120,350	1788,373
1	0,000	120,350	1788,574
1	0,000	120,350	1788,776
1	0,000	120,400	1788,876
1	0,000	120,400	1789,178
1	0,000	120,400	1789,279
1	0,000	120,400	1789,481
1	0,000	120,400	1789,682
1	0,000	120,450	1789,883
1	0,000	120,450	1790,085
1	0,000	120,450	1790,286
1	0,000	120,450	1790,387
1	0,000	120,450	1790,588
1	0,000	120,500	1790,891
1	0,000	120,500	1791,092
1	0,000	120,500	1791,193
1	0,000	120,500	1791,394
1	0,000	120,500	1791,595
1	0,000	120,550	1791,595
1	0,000	120,550	1791,394
1	0,000	120,550	1792,099
1	0,000	120,550	1792,300
1	0,000	120,550	1792,502
1	0,000	120,600	1792,703
1	0,000	120,600	1792,804
1	0,000	120,600	1793,005
1	0,000	120,600	1793,307
1	0,000	120,600	1793,509
1	0,000	120,650	1793,610
1	0,000	120,650	1793,811
1	0,000	120,650	1794,012
1	0,000	120,650	1794,214
1	0,000	120,650	1794,214
1	0,000	120,700	1794,617
1	0,000	120,700	1794,717
1	0,000	120,700	1794,919
1	0,000	120,700	1795,120
1	0,000	120,700	1795,322
1	0,000	120,751	1795,422
1	0,000	120,751	1795,724
1	0,000	120,751	1795,926
1	0,000	120,751	1796,027
1	0,000	120,751	1796,329
1	0,000	120,801	1796,429
1	0,000	120,801	1796,631
1	0,000	120,801	1796,832
1	0,000	120,801	1797,034
1	0,000	120,801	1797,235
1	0,000	120,851	1797,437
1	0,000	120,851	1797,638
1	0,000	120,851	1797,739
1	0,000	120,851	1798,041
1	0,000	120,851	1798,141
1	0,000	120,902	1798,343
1	0,000	120,902	1798,544
1	0,000	120,902	1798,746
1	0,000	120,902	1798,947
1	0,000	120,902	1799,048
1	0,000	120,952	1799,350
1	0,000	120,952	1799,451
1	0,000	120,952	1799,652
1	0,000	120,952	1799,854
1	0,000	120,952	1799,954
1	0,000	121,002	1800,156
1	0,000	121,002	1800,357
1	0,000	121,002	1800,558
1	0,000	121,002	1800,861
1	0,000	121,002	1801,062
1	0,000	121,052	1801,263
1	0,000	121,052	1801,263
1	0,000	121,052	1801,566
1	0,000	121,052	1801,767
1	0,000	121,052	1801,968
1	0,000	121,102	1802,069
1	0,000	121,102	1802,271
1	0,000	121,102	1802,472
1	0,000	121,102	1802,673
1	0,000	121,102	1802,875
1	0,000	121,152	1803,177
1	0,000	121,152	1803,278
1	0,000	121,152	1803,479
1	0,000	121,152	1803,680
1	0,000	121,152	1803,882
1	0,000	121,202	1804,083
1	0,000	121,202	1804,184
1	0,000	121,202	1804,184
1	0,000	121,202	1804,587
1	0,000	121,202	1804,889
1	0,000	121,252	1804,889
1	0,000	121,252	1805,191
1	0,000	121,252	1805,392
1	0,000	121,252	1805,594
1	0,000	121,252	1805,795
1	0,000	121,302	1805,997
1	0,000	121,302	1805,997
1	0,000	121,302	1806,299
1	0,000	121,302	1806,601
1	0,000	121,302	1806,702
1	0,000	121,353	1806,903
1	0,000	121,353	1807,004
1	0,000	121,353	1807,205
1	0,000	121,353	1807,407
1	0,000	121,353	1807,608
1	0,000	121,403	1807,809
1	0,000	121,403	1808,011
1	0,000	121,403	1808,313
1	0,000	121,403	1808,414
1	0,000	121,403	1808,615
1	0,000	121,453	1808,817
1	0,000	121,453	1809,018
1	0,000	121,453	1809,119
1	0,000	121,453	1809,320
1	0,000	121,453	1809,521
1	0,000	121,504	1809,723
1	0,000	121,504	1809,924
1	0,000	121,504	1810,126
1	0,000	121,504	1810,327
1	0,000	121,504	1810,529
1	0,000	121,554	1810,629
1	0,000	121,554	1810,831
1	0,000	121,554	1811,032
1	0,000	121,554	1811,234
1	0,000	121,554	1811,435
1	0,000	121,604	1811,636
1	0,000	121,604	1811,838
1	0,000	121,604	1812,039
1	0,000	121,604	1812,241
1	0,000	121,604	1812,341
1	0,000	121,654	1812,543
1	0,000	121,654	1812,744
1	0,000	121,654	1812,946
1	0,000	121,654	1813,147
1	0,000	121,654	1813,147
1	0,000	121,704	1813,550
1	0,000	121,704	1813,651
1	0,000	121,704	1813,953
1	0,000	121,704	1814,154
1	0,000	121,704	1814,255
1	0,000	121,755	1814,456
1	0,000	121,755	1814,658
1	0,000	121,755	1814,859
1	0,000	121,755	1815,060
1	0,000	121,755	1815,161
1	0,000	121,804	1815,363
1	0,000	121,804	1815,665
1	0,000	121,804	1815,765
1	0,000	121,804	1815,967
1	0,000	121,804	1816,269
1	0,000	121,854	1816,571
1	0,000	121,854	1816,571
1	0,000	121,854	1816,873
1	0,000	121,854	1816,974
1	0,000	121,854	1817,175
1	0,000	121,904	1817,477
1	0,000	121,904	1817,578
1	0,000	121,904	1817,780
1	0,000	121,904	1817,880
1	0,000	121,904	1818,182
1	0,000	121,955	1818,384
1	0,000	121,955	1818,384
1	0,000	121,955	1818,787
1	0,000	121,955	1818,988
1	0,000	121,955	1819,089
1	0,000	122,005	1819,290
1	0,000	122,005	1819,492
1	0,000	122,005	1819,693
1	0,000	122,005	1819,894
1	0,000	122,005	1820,096
1	0,000	122,055	1820,297
1	0,000	122,055	1820,499
1	0,000	122,055	1820,700
1	0,000	122,055	1820,901
1	0,000	122,055	1821,103
1	0,000	122,105	1821,304
1	0,000	122,105	1821,506
1	0,000	122,105	1821,808
1	0,000	122,105	1822,009
1	0,000	122,105	1821,909
1	0,000	122,155	1822,211
1	0,000	122,155	1822,412
1	0,000	122,155	1822,614
1	0,000	122,155	1822,815
1	0,000	122,155	1823,016
1	0,000	122,205	1823,218
1	0,000	122,205	1823,318
1	0,000	122,205	1823,520
1	0,000	122,205	1823,822
1	0,000	122,205	1823,923
1	0,000	122,255	1824,124
1	0,000	122,255	1824,326
1	0,000	122,255	1824,527
1	0,000	122,255	1824,426
1	0,000	122,255	1824,930
1	0,000	122,305	1825,131
1	0,000	122,305	1825,333
1	0,000	122,305	1825,534
1	0,000	122,305	1825,735
1	0,000	122,305	1825,937
1	0,000	122,355	1826,138
1	0,000	122,355	1826,340
1	0,000	122,355	1826,541
1	0,000	122,355	1826,743
1	0,000	122,355	1826,843
1	0,000	122,406	1827,045
1	0,000	122,406	1827,246
1	0,000	122,406	1827,548
1	0,000	122,406	1827,649
1	0,000	122,406	1827,850
1	0,000	122,455	1828,052
1	0,000	122,455	1828,152
1	0,000	122,455	1828,455
1	0,000	122,455	1828,555
1	0,000	122,455	1828,857
1	0,000	122,505	1829,059
1	0,000	122,505	1829,160
1	0,000	122,505	1829,462
1	0,000	122,505	1829,562
1	0,000	122,505	1829,865
1	0,000	122,555	1829,965
1	0,000	122,555	1830,167
1	0,000	122,555	1830,368
1	0,000	122,555	1830,569
1	0,000	122,555	1830,771
1	0,000	122,605	1830,972
1	0,000	122,605	1831,073
1	0,000	122,605	1831,375
1	0,000	122,605	1831,476
1	0,000	122,605	1831,677
1	0,000	122,656	1831,979
1	0,000	122,656	1832,181
1	0,000	122,656	1832,382
1	0,000	122,656	1832,483
1	0,000	122,656	1832,684
1	0,000	122,705	1832,986
1	0,000	122,705	1833,188
1	0,000	122,705	1833,289
1	0,000	122,705	1833,691
1	0,000	122,705	1833,691
1	0,000	122,755	1833,893
1	0,000	122,755	1834,094
1	0,000	122,755	1834,296
1	0,000	122,755	1834,497
1	0,000	122,755	1834,698
1	0,000	122,755	1835,101
1	0,000	122,806	1835,101
1	0,000	122,806	1835,202
1	0,000	122,806	1835,504
1	0,000	122,806	1835,605
1	0,000	122,806	1835,806
1	0,000	122,856	1836,108
1	0,000	122,856	1836,411
1	0,000	122,856	1836,511
1	0,000	122,856	1836,713
1	0,000	122,856	1836,813
1	0,000	122,906	1836,914
1	0,000	122,906	1837,317
1	0,000	122,906	1837,418
1	0,000	122,906	1837,619
1	0,000	122,906	1837,820
1	0,000	122,956	1838,022
1	0,000	122,956	1838,223
1	0,000	122,956	1838,425
1	0,000	122,956	1838,626
1	0,000	123,006	1838,828
1	0,000	123,006	1838,928
1	0,000	123,006	1839,230
1	0,000	123,006	1839,432
1	0,000	123,006	1839,633
1	0,000	123,056	1839,734
1	0,000	123,056	1840,036
1	0,000	123,056	1840,137
1	0,000	123,056	1840,439
1	0,000	123,056	1840,540
1	0,000	123,106	1840,741
1	0,000	123,106	1840,942
1	0,000	123,106	1841,144
1	0,000	123,106	1841,446
1	0,000	123,106	1841,547
1	0,000	123,106	1841,748
1	0,000	123,156	1841,647
1	0,000	123,156	1842,151
1	0,000	123,156	1842,352
1	0,000	123,156	1842,554
1	0,000	123,205	1842,755
1	0,000	123,205	1842,957
1	0,000	123,205	1843,158
1	0,000	123,205	1843,359
1	0,000	123,205	1843,561
1	0,000	123,205	1843,762
1	0,000	123,256	1843,964
1	0,000	123,256	1844,165
1	0,000	123,256	1843,964
1	0,000	123,256	1844,769
1	0,000	123,256	1844,669
1	0,000	123,306	1844,971
1	0,000	123,306	1845,172
1	0,000	123,306	1845,374
1	0,000	123,306	1845,575
1	0,000	123,306	1845,676
1	0,000	123,356	1845,474
1	0,000	123,356	1846,179
1	0,000	123,356	1846,381
1	0,000	123,356	1846,582
1	0,000	123,356	1846,683
1	0,000	123,406	1846,884
1	0,000	123,406	1847,186
1	0,000	123,406	1847,388
1	0,000	123,406	1847,488
1	0,000	123,406	1847,791
1	0,000	123,456	1847,992
1	0,000	123,456	1848,193
1	0,000	123,456	1848,395
1	0,000	123,456	1848,495
1	0,000	123,456	1848,495
1	0,000	123,506	1848,999
1	0,000	123,506	1849,100
1	0,000	123,506	1849,301
1	0,000	123,506	1849,503
1	0,000	123,506	1849,704
1	0,000	123,556	1849,905
1	0,000	123,556	1850,107
1	0,000	123,556	1850,409
1	0,000	123,556	1850,510
1	0,000	123,556	1850,812
1	0,000	123,607	1850,912
1	0,000	123,607	1851,114
1	0,000	123,607	1851,315
1	0,000	123,607	1851,416
1	0,000	123,607	1851,617
1	0,000	123,657	1851,819
1	0,000	123,657	1852,020
1	0,000	123,657	1852,222
1	0,000	123,657	1852,423
1	0,000	123,657	1852,625
1	0,000	123,707	1852,725
1	0,000	123,707	1853,027
1	0,000	123,707	1853,229
1	0,000	123,707	1853,430
1	0,000	123,707	1853,632
1	0,000	123,757	1853,833
1	0,000	123,757	1854,034
1	0,000	123,757	1854,236
1	0,000	123,757	1854,437
1	0,000	123,757	1854,639
1	0,000	123,807	1854,840
1	0,000	123,807	1854,941
1	0,000	123,807	1855,243
1	0,000	123,807	1855,444
1	0,000	123,807	1855,646
1	0,000	123,857	1855,847
1	0,000	123,857	1856,049
1	0,000	123,857	1856,250
1	0,000	123,857	1856,451
1	0,000	123,857	1856,653
1	0,000	123,907	1856,854
1	0,000	123,907	1857,056
1	0,000	123,907	1857,257
1	0,000	123,907	1857,458
1	0,000	123,907	1857,660
1	0,000	123,958	1857,861
1	0,000	123,958	1858,063
1	0,000	123,958	1858,264
1	0,000	123,958	1858,466
1	0,000	123,958	1858,667
1	0,000	124,008	1858,768
1	0,000	124,008	1859,070
1	0,000	124,008	1859,271
1	0,000	124,008	1859,271
1	0,000	124,008	1859,674
1	0,000	124,058	1859,875
1	0,000	124,058	1860,178
1	0,000	124,058	1860,278
1	0,000	124,058	1860,480
1	0,000	124,058	1860,681
1	0,000	124,108	1860,883
1	0,000	124,108	1860,983
1	0,000	124,108	1861,185
1	0,000	124,108	1861,487
1	0,000	124,108	1861,588
1	0,000	124,158	1861,990
1	0,000	124,158	1862,091
1	0,000	124,158	1862,292
1	0,000	124,158	1862,494
1	0,000	124,158	1862,595
1	0,000	124,208	1862,796
1	0,000	124,208	1863,098
1	0,000	124,208	1863,098
1	0,000	124,208	1863,501
1	0,000	124,208	1863,602
1	0,000	124,258	1863,904
1	0,000	124,258	1864,105
1	0,000	124,258	1864,307
1	0,000	124,258	1864,508
1	0,000	124,258	1864,609
1	0,000	124,308	1864,810
1	0,000	124,308	1865,012
1	0,000	124,308	1865,213
1	0,000	124,308	1865,414
1	0,000	124,308	1865,515
1	0,000	124,358	1865,817
1	0,000	124,358	1866,019
1	0,000	124,358	1866,220
1	0,000	124,358	1866,422
1	0,000	124,358	1866,724
1	0,000	124,408	1867,026
1	0,000	124,408	1867,126
1	0,000	124,408	1867,328
1	0,000	124,408	1867,429
1	0,000	124,408	1867,630
1	0,000	124,458	1867,831
1	0,000	124,458	1868,033
1	0,000	124,458	1868,234
1	0,000	124,458	1868,436
1	0,000	124,458	1868,738
1	0,000	124,508	1868,839
1	0,000	124,508	1869,141
1	0,000	124,508	1869,342
1	0,000	124,508	1869,443
1	0,000	124,508	1869,644
1	0,000	124,558	1869,846
1	0,000	124,558	1870,047
1	0,000	124,558	1870,248
1	0,000	124,558	1870,450
1	0,000	124,558	1870,651
1	0,000	124,609	1870,953
1	0,000	124,609	1871,255
1	0,000	124,609	1871,356
1	0,000	124,609	1871,457
1	0,000	124,609	1871,658
1	0,000	124,659	1871,658
1	0,000	124,659	1872,162
1	0,000	124,659	1872,263
1	0,000	124,659	1872,464
1	0,000	124,659	1872,263
1	0,000	124,708	1872,968
1	0,000	124,708	1873,169
1	0,000	124,708	1873,370
1	0,000	124,708	1873,471
1	0,000	124,708	1873,773
1	0,000	124,759	1873,975
1	0,000	124,759	1874,176
1	0,000	124,759	1874,277
1	0,000	124,759	1874,478
1	0,000	124,759	1874,680
1	0,000	124,809	1874,881
1	0,000	124,809	1875,082
1	0,000	124,809	1875,284
1	0,000	124,809	1875,385
1	0,000	124,809	1875,687
1	0,000	124,859	1875,888
1	0,000	124,859	1876,089
1	0,000	124,859	1876,291
1	0,000	124,859	1876,492
1	0,000	124,859	1876,694
1	0,000	124,908	1876,996
1	0,000	124,908	1877,197
1	0,000	124,908	1877,298
1	0,000	124,908	1877,600
1	0,000	124,908	1877,701
1	0,000	124,958	1877,902
1	0,000	124,958	1878,204
1	0,000	124,958	1878,305
1	0,000	124,958	1878,708
1	0,000	124,958	1878,809
1	0,000	125,008	1878,909
1	0,000	125,008	1879,211
1	0,000	125,008	1879,312
1	0,000	125,008	1879,514
1	0,000	125,008	1879,514
1	0,000	125,058	1879,916
1	0,000	125,058	1880,219
1	0,000	125,058	1880,420
1	0,000	125,058	1880,621
1	0,000	125,058	1880,823
1	0,000	125,108	1881,024
1	0,000	125,108	1881,125
1	0,000	125,108	1881,427
1	0,000	125,108	1881,528
1	0,000	125,108	1881,729
1	0,000	125,159	1881,931
1	0,000	125,159	1882,132
1	0,000	125,159	1882,535
1	0,000	125,159	1882,535
1	0,000	125,159	1882,938
1	0,000	125,209	1883,240
1	0,000	125,209	1883,340
1	0,000	125,209	1883,542
1	0,000	125,209	1883,743
1	0,000	125,209	1884,045
1	0,000	125,259	1884,146
1	0,000	125,259	1884,348
1	0,000	125,259	1884,448
1	0,000	125,259	1884,650
1	0,000	125,259	1884,851
1	0,000	125,309	1885,052
1	0,000	125,309	1885,254
1	0,000	125,309	1885,254
1	0,000	125,309	1885,757
1	0,000	125,309	1885,858
1	0,000	125,359	1886,160
1	0,000	125,359	1886,362
1	0,000	125,359	1886,765
1	0,000	125,359	1886,966
1	0,000	125,359	1887,167
1	0,000	125,409	1887,369
1	0,000	125,409	1887,570
1	0,000	125,409	1887,671
1	0,000	125,409	1887,872
1	0,000	125,409	1888,074
1	0,000	125,460	1888,376
1	0,000	125,460	1888,477
1	0,000	125,460	1888,678
1	0,000	125,460	1888,879
1	0,000	125,460	1889,081
1	0,000	125,510	1889,383
1	0,000	125,510	1889,685
1	0,000	125,510	1889,886
1	0,000	125,510	1889,987
1	0,000	125,510	1890,189
1	0,000	125,560	1890,189
1	0,000	125,560	1890,692
1	0,000	125,560	1890,793
1	0,000	125,560	1890,994
1	0,000	125,560	1890,894
1	0,000	125,611	1891,296
1	0,000	125,611	1891,599
1	0,000	125,611	1891,800
1	0,000	125,611	1892,001
1	0,000	125,611	1892,303
1	0,000	125,660	1892,505
1	0,000	125,660	1892,706
1	0,000	125,660	1892,807
1	0,000	125,660	1893,109
1	0,000	125,660	1893,311
1	0,000	125,710	1893,512
1	0,000	125,710	1893,713
1	0,000	125,710	1893,915
1	0,000	125,710	1894,116
1	0,000	125,710	1894,318
1	0,000	125,761	1894,519
1	0,000	125,761	1894,720
1	0,000	125,761	1894,922
1	0,000	125,761	1895,123
1	0,000	125,761	1895,325
1	0,000	125,811	1895,425
1	0,000	125,811	1895,728
1	0,000	125,811	1895,828
1	0,000	125,811	1896,130
1	0,000	125,811	1896,432
1	0,000	125,861	1896,634
1	0,000	125,861	1896,835
1	0,000	125,861	1897,037
1	0,000	125,861	1897,238
1	0,000	125,861	1897,440
1	0,000	125,911	1897,641
1	0,000	125,911	1897,842
1	0,000	125,911	1898,044
1	0,000	125,911	1898,245
1	0,000	125,911	1898,447
1	0,000	125,961	1898,648
1	0,000	125,961	1898,950
1	0,000	125,961	1899,252
1	0,000	125,961	1899,454
1	0,000	125,961	1899,554
1	0,000	126,011	1899,756
1	0,000	126,011	1899,957
1	0,000	126,011	1900,159
1	0,000	126,011	1900,360
1	0,000	126,011	1900,562
1	0,000	126,061	1900,763
1	0,000	126,061	1900,964
1	0,000	126,061	1901,166
1	0,000	126,061	1901,367
1	0,000	126,061	1901,569
1	0,000	126,111	1901,669
1	0,000	126,111	1901,871
1	0,000	126,111	1902,274
1	0,000	126,111	1902,475
1	0,000	126,111	1902,676
1	0,000	126,161	1902,878
1	0,000	126,161	1903,079
1	0,000	126,161	1903,180
1	0,000	126,161	1903,381
1	0,000	126,161	1903,583
1	0,000	126,211	1903,784
1	0,000	126,211	1903,986
1	0,000	126,211	1904,187
1	0,000	126,211	1904,388
1	0,000	126,211	1904,590
1	0,000	126,261	1904,791
1	0,000	126,261	1904,993
1	0,000	126,261	1905,396
1	0,000	126,261	1905,496
1	0,000	126,261	1905,798
1	0,000	126,312	1906,000
1	0,000	126,312	1906,201
1	0,000	126,312	1906,302
1	0,000	126,312	1906,604
1	0,000	126,312	1906,705
1	0,000	126,362	1907,007
1	0,000	126,362	1907,208
1	0,000	126,362	1907,309
1	0,000	126,362	1907,611
1	0,000	126,362	1907,712
1	0,000	126,412	1907,913
1	0,000	126,412	1908,115
1	0,000	126,412	1908,517
1	0,000	126,412	1908,820
1	0,000	126,412	1908,920
1	0,000	126,462	1909,021
1	0,000	126,462	1909,323
1	0,000	126,462	1909,525
1	0,000	126,462	1909,625
1	0,000	126,462	1909,827
1	0,000	126,512	1910,129
1	0,000	126,512	1910,229
1	0,000	126,512	1910,532
1	0,000	126,512	1910,733
1	0,000	126,512	1910,532
1	0,000	126,562	1910,834
1	0,000	126,562	1911,237
1	0,000	126,562	1911,539
1	0,000	126,562	1911,841
1	0,000	126,562	1912,042
1	0,000	126,612	1912,244
1	0,000	126,612	1912,445
1	0,000	126,612	1912,646
1	0,000	126,612	1912,747
1	0,000	126,612	1913,049
1	0,000	126,662	1913,150
1	0,000	126,662	1913,251
1	0,000	126,662	1913,553
1	0,000	126,662	1913,754
1	0,000	126,662	1914,056
1	0,000	126,712	1914,157
1	0,000	126,712	1914,359
1	0,000	126,712	1914,560
1	0,000	126,712	1914,761
1	0,000	126,712	1914,963
1	0,000	126,762	1915,063
1	0,000	126,762	1915,668
1	0,000	126,762	1915,768
1	0,000	126,762	1916,071
1	0,000	126,762	1916,171
1	0,000	126,812	1916,373
1	0,000	126,812	1916,574
1	0,000	126,812	1916,776
1	0,000	126,812	1916,977
1	0,000	126,812	1917,178
1	0,000	126,862	1917,480
1	0,000	126,862	1917,581
1	0,000	126,862	1917,883
1	0,000	126,862	1918,085
1	0,000	126,862	1918,286
1	0,000	126,913	1918,588
1	0,000	126,913	1918,790
1	0,000	126,913	1918,991
1	0,000	126,913	1919,193
1	0,000	126,913	1919,394
1	0,000	126,963	1919,696
1	0,000	126,963	1919,797
1	0,000	126,963	1919,998
1	0,000	126,963	1920,200
1	0,000	126,963	1920,502
1	0,000	127,013	1920,703
1	0,000	127,013	1920,905
1	0,000	127,013	1921,106
1	0,000	127,013	1921,207
1	0,000	127,013	1921,609
1	0,000	127,063	1921,710
1	0,000	127,063	1922,012
1	0,000	127,063	1922,113
1	0,000	127,063	1922,314
1	0,000	127,063	1922,617
1	0,000	127,113	1922,818
1	0,000	127,113	1922,919
1	0,000	127,113	1923,120
1	0,000	127,113	1923,523
1	0,000	127,113	1923,624
1	0,000	127,163	1923,825
1	0,000	127,163	1924,026
1	0,000	127,163	1924,329
1	0,000	127,163	1924,631
1	0,000	127,163	1924,933
1	0,000	127,213	1925,134
1	0,000	127,213	1925,235
1	0,000	127,213	1925,436
1	0,000	127,213	1925,638
1	0,000	127,213	1925,940
1	0,000	127,263	1926,141
1	0,000	127,263	1926,041
1	0,000	127,263	1926,544
1	0,000	127,263	1926,846
1	0,000	127,263	1927,048
1	0,000	127,263	1927,148
1	0,000	127,313	1927,350
1	0,000	127,313	1927,753
1	0,000	127,313	1928,055
1	0,000	127,313	1928,256
1	0,000	127,363	1928,357
1	0,000	127,363	1928,558
1	0,000	127,363	1928,760
1	0,000	127,363	1928,961
1	0,000	127,363	1929,163
1	0,000	127,413	1929,465
1	0,000	127,413	1929,565
1	0,000	127,413	1929,868
1	0,000	127,413	1929,968
1	0,000	127,413	1930,270
1	0,000	127,413	1930,472
1	0,000	127,463	1930,673
1	0,000	127,463	1930,875
1	0,000	127,463	1931,177
1	0,000	127,463	1931,277
1	0,000	127,463	1931,580
1	0,000	127,513	1931,882
1	0,000	127,513	1931,982
1	0,000	127,513	1932,184
1	0,000	127,513	1932,285
1	0,000	127,513	1932,587
1	0,000	127,564	1932,788
1	0,000	127,564	1932,990
1	0,000	127,564	1933,292
1	0,000	127,564	1933,493
1	0,000	127,613	1933,795
1	0,000	127,613	1933,997
1	0,000	127,613	1934,198
1	0,000	127,613	1934,399
1	0,000	127,613	1934,601
1	0,000	127,613	1934,802
1	0,000	127,663	1935,004
1	0,000	127,663	1935,306
1	0,000	127,663	1935,406
1	0,000	127,663	1935,608
1	0,000	127,713	1935,809
1	0,000	127,713	1936,011
1	0,000	127,713	1936,212
1	0,000	127,713	1936,414
1	0,000	127,713	1936,816
1	0,000	127,763	1937,018
1	0,000	127,763	1937,219
1	0,000	127,763	1937,421
1	0,000	127,763	1937,723
1	0,000	127,763	1938,025
1	0,000	127,763	1938,226
1	0,000	127,813	1938,226
1	0,000	127,813	1938,428
1	0,000	127,813	1938,730
1	0,000	127,813	1939,032
1	0,000	127,813	1939,133
1	0,000	127,863	1939,435
1	0,000	127,863	1939,636
1	0,000	127,863	1939,838
1	0,000	127,863	1940,140
1	0,000	127,863	1940,341
1	0,000	127,913	1940,341
1	0,000	127,913	1940,845
1	0,000	127,913	1941,046
1	0,000	127,913	1941,147
1	0,000	127,913	1941,348
1	0,000	127,964	1941,650
1	0,000	127,964	1941,650
1	0,000	127,964	1942,053
1	0,000	127,964	1942,255
1	0,000	127,964	1942,456
1	0,000	128,014	1942,758
1	0,000	128,014	1942,960
1	0,000	128,014	1943,161
1	0,000	128,014	1943,362
1	0,000	128,014	1943,665
1	0,000	128,064	1943,765
1	0,000	128,064	1944,067
1	0,000	128,064	1944,370
1	0,000	128,064	1944,470
1	0,000	128,064	1944,672
1	0,000	128,114	1944,772
1	0,000	128,114	1945,074
1	0,000	128,114	1945,276
1	0,000	128,114	1945,679
1	0,000	128,114	1945,779
1	0,000	128,164	1946,082
1	0,000	128,164	1946,283
1	0,000	128,164	1946,484
1	0,000	128,164	1946,686
1	0,000	128,164	1946,887
1	0,000	128,214	1947,089
1	0,000	128,214	1947,290
1	0,000	128,214	1947,592
1	0,000	128,214	1947,794
1	0,000	128,214	1947,894
1	0,000	128,264	1948,196
1	0,000	128,264	1948,297
1	0,000	128,264	1948,599
1	0,000	128,264	1948,801
1	0,000	128,264	1949,203
1	0,000	128,315	1949,304
1	0,000	128,315	1949,405
1	0,000	128,315	1949,707
1	0,000	128,315	1949,908
1	0,000	128,315	1950,110
1	0,000	128,365	1950,311
1	0,000	128,365	1950,513
1	0,000	128,365	1950,815
1	0,000	128,365	1951,117
1	0,000	128,365	1951,218
1	0,000	128,415	1951,419
1	0,000	128,415	1951,620
1	0,000	128,415	1951,822
1	0,000	128,415	1952,023
1	0,000	128,415	1952,124
1	0,000	128,465	1952,527
1	0,000	128,465	1952,728
1	0,000	128,465	1952,930
1	0,000	128,465	1953,333
1	0,000	128,465	1953,433
1	0,000	128,515	1953,735
1	0,000	128,515	1953,735
1	0,000	128,515	1954,037
1	0,000	128,515	1954,340
1	0,000	128,515	1954,541
1	0,000	128,565	1954,843
1	0,000	128,565	1954,944
1	0,000	128,565	1955,045
1	0,000	128,565	1955,347
1	0,000	128,565	1955,447
1	0,000	128,615	1955,649
1	0,000	128,615	1956,052
1	0,000	128,615	1956,253
1	0,000	128,615	1956,454
1	0,000	128,615	1956,656
1	0,000	128,665	1956,857
1	0,000	128,665	1957,159
1	0,000	128,665	1957,260
1	0,000	128,665	1957,562
1	0,000	128,665	1957,663
1	0,000	128,715	1958,066
1	0,000	128,715	1958,167
1	0,000	128,715	1958,368
1	0,000	128,715	1958,569
1	0,000	128,715	1958,771
1	0,000	128,765	1958,972
1	0,000	128,765	1959,174
1	0,000	128,765	1959,174
1	0,000	128,765	1959,778
1	0,000	128,765	1959,979
1	0,000	128,815	1960,181
1	0,000	128,815	1960,382
1	0,000	128,815	1960,583
1	0,000	128,815	1960,785
1	0,000	128,815	1961,087
1	0,000	128,865	1961,288
1	0,000	128,865	1961,490
1	0,000	128,865	1961,691
1	0,000	128,865	1961,893
1	0,000	128,865	1962,094
1	0,000	128,915	1962,195
1	0,000	128,915	1962,396
1	0,000	128,915	1962,698
1	0,000	128,915	1962,900
1	0,000	128,915	1963,101
1	0,000	128,965	1963,303
1	0,000	128,965	1963,705
1	0,000	128,965	1963,907
1	0,000	128,965	1964,008
1	0,000	128,965	1964,310
1	0,000	129,015	1964,511
1	0,000	129,015	1964,713
1	0,000	129,015	1964,914
1	0,000	129,015	1965,216
1	0,000	129,015	1965,317
1	0,000	129,065	1965,518
1	0,000	129,065	1965,720
1	0,000	129,065	1965,921
1	0,000	129,065	1966,122
1	0,000	129,065	1966,425
1	0,000	129,115	1966,626
1	0,000	129,115	1966,928
1	0,000	129,115	1967,230
1	0,000	129,115	1967,432
1	0,000	129,115	1967,633
1	0,000	129,165	1967,834
1	0,000	129,165	1967,935
1	0,000	129,165	1968,237
1	0,000	129,165	1968,439
1	0,000	129,165	1968,539
1	0,000	129,215	1968,842
1	0,000	129,215	1969,043
1	0,000	129,215	1969,244
1	0,000	129,215	1969,345
1	0,000	129,215	1969,647
1	0,000	129,265	1969,849
1	0,000	129,265	1970,050
1	0,000	129,265	1970,352
1	0,000	129,265	1970,554
1	0,000	129,265	1970,755
1	0,000	129,315	1971,057
1	0,000	129,315	1971,259
1	0,000	129,315	1971,460
1	0,000	129,315	1971,661
1	0,000	129,315	1971,863
1	0,000	129,365	1972,165
1	0,000	129,365	1972,366
1	0,000	129,365	1972,568
1	0,000	129,365	1972,769
1	0,000	129,365	1972,971
1	0,000	129,415	1973,172
1	0,000	129,415	1973,474
1	0,000	129,415	1973,474
1	0,000	129,415	1973,877
1	0,000	129,415	1974,078
1	0,000	129,465	1974,280
1	0,000	129,465	1974,582
1	0,000	129,465	1974,783
1	0,000	129,465	1974,985
1	0,000	129,465	1975,287
1	0,000	129,515	1975,287
1	0,000	129,515	1975,690
1	0,000	129,515	1975,891
1	0,000	129,515	1975,992
1	0,000	129,515	1976,193
1	0,000	129,565	1976,395
1	0,000	129,565	1976,697
1	0,000	129,565	1976,898
1	0,000	129,565	1977,100
1	0,000	129,565	1977,301
1	0,000	129,615	1977,603
1	0,000	129,615	1977,805
1	0,000	129,615	1978,006
1	0,000	129,615	1978,308
1	0,000	129,615	1978,510
1	0,000	129,665	1978,812
1	0,000	129,665	1978,912
1	0,000	129,665	1979,114
1	0,000	129,665	1979,315
1	0,000	129,665	1979,617
1	0,000	129,715	1979,919
1	0,000	129,715	1980,020
1	0,000	129,715	1980,222
1	0,000	129,715	1980,423
1	0,000	129,715	1980,725
1	0,000	129,765	1980,826
1	0,000	129,765	1981,128
1	0,000	129,765	1981,430
1	0,000	129,765	1981,631
1	0,000	129,765	1981,833
1	0,000	129,815	1982,034
1	0,000	129,815	1982,236
1	0,000	129,815	1982,437
1	0,000	129,815	1982,739
1	0,000	129,815	1982,941
1	0,000	129,865	1983,041
1	0,000	129,865	1983,344
1	0,000	129,865	1983,646
1	0,000	129,865	1983,746
1	0,000	129,865	1983,948
1	0,000	129,916	1984,149
1	0,000	129,916	1984,351
1	0,000	129,916	1984,653
1	0,000	129,916	1984,854
1	0,000	129,916	1985,156
1	0,000	129,966	1985,358
1	0,000	129,966	1985,660
1	0,000	129,966	1985,861
1	0,000	129,966	1986,063
1	0,000	129,966	1986,163
1	0,000	130,016	1986,566
1	0,000	130,016	1986,566
1	0,000	130,016	1986,868
1	0,000	130,016	1987,070
1	0,000	130,016	1987,271
1	0,000	130,066	1987,473
1	0,000	130,066	1987,775
1	0,000	130,066	1987,775
1	0,000	130,066	1988,177
1	0,000	130,066	1988,379
1	0,000	130,116	1988,681
1	0,000	130,116	1988,882
1	0,000	130,116	1989,185
1	0,000	130,116	1989,285
1	0,000	130,116	1989,487
1	0,000	130,166	1989,688
1	0,000	130,166	1989,990
1	0,000	130,166	1990,292
1	0,000	130,166	1990,393
1	0,000	130,166	1990,393
1	0,000	130,216	1990,695
1	0,000	130,216	1991,098
1	0,000	130,216	1991,199
1	0,000	130,216	1991,501
1	0,000	130,216	1991,702
1	0,000	130,266	1991,904
1	0,000	130,266	1992,105
1	0,000	130,266	1992,407
1	0,000	130,266	1992,609
1	0,000	130,266	1992,810
1	0,000	130,316	1993,112
1	0,000	130,316	1993,314
1	0,000	130,316	1993,616
1	0,000	130,316	1993,817
1	0,000	130,316	1994,019
1	0,000	130,367	1994,220
1	0,000	130,367	1994,421
1	0,000	130,367	1994,623
1	0,000	130,367	1994,824
1	0,000	130,367	1994,925
1	0,000	130,417	1995,126
1	0,000	130,417	1995,529
1	0,000	130,417	1995,731
1	0,000	130,417	1996,033
1	0,000	130,417	1996,234
1	0,000	130,467	1996,436
1	0,000	130,467	1996,637
1	0,000	130,467	1996,838
1	0,000	130,467	1997,141
1	0,000	130,467	1997,543
1	0,000	130,516	1997,644
1	0,000	130,516	1997,745
1	0,000	130,516	1998,047
1	0,000	130,516	1998,349
1	0,000	130,516	1998,450
1	0,000	130,567	1998,651
1	0,000	130,567	1998,853
1	0,000	130,567	1999,155
1	0,000	130,567	1999,356
1	0,000	130,567	1999,658
1	0,000	130,617	1999,860
1	0,000	130,617	2000,061
1	0,000	130,617	2000,262
1	0,000	130,617	2000,464
1	0,000	130,617	2000,766
1	0,000	130,667	2000,967
1	0,000	130,667	2001,068
1	0,000	130,667	2001,270
1	0,000	130,667	2001,471
1	0,000	130,667	2001,773
1	0,000	130,717	2001,974
1	0,000	130,717	2002,176
1	0,000	130,717	2002,478
1	0,000	130,717	2002,679
1	0,000	130,717	2002,982
1	0,000	130,767	2003,183
1	0,000	130,767	2003,485
1	0,000	130,767	2003,687
1	0,000	130,767	2003,888
1	0,000	130,767	2004,089
1	0,000	130,818	2004,391
1	0,000	130,818	2004,593
1	0,000	130,818	2004,794
1	0,000	130,818	2004,996
1	0,000	130,818	2005,197
1	0,000	130,868	2005,499
1	0,000	130,868	2005,600
1	0,000	130,868	2005,801
1	0,000	130,868	2006,104
1	0,000	130,868	2006,305
1	0,000	130,919	2006,506
1	0,000	130,919	2006,708
1	0,000	130,919	2007,010
1	0,000	130,919	2007,211
1	0,000	130,919	2007,513
1	0,000	130,969	2007,614
1	0,000	130,969	2007,816
1	0,000	130,969	2008,218
1	0,000	130,969	2008,319
1	0,000	130,969	2008,621
1	0,000	131,019	2008,823
1	0,000	131,019	2009,024
1	0,000	131,019	2009,225
1	0,000	131,019	2009,427
1	0,000	131,019	2009,729
1	0,000	131,069	2009,930
1	0,000	131,069	2010,132
1	0,000	131,069	2010,333
1	0,000	131,069	2010,535
1	0,000	131,069	2010,937
1	0,000	131,119	2011,038
1	0,000	131,119	2011,240
1	0,000	131,119	2011,441
1	0,000	131,119	2011,743
1	0,000	131,119	2011,945
1	0,000	131,169	2012,146
1	0,000	131,169	2012,347
1	0,000	131,169	2012,549
1	0,000	131,169	2012,851
1	0,000	131,169	2013,052
1	0,000	131,219	2013,254
1	0,000	131,219	2013,657
1	0,000	131,219	2013,757
1	0,000	131,219	2013,959
1	0,000	131,219	2014,362
1	0,000	131,269	2014,362
1	0,000	131,269	2014,261
1	0,000	131,269	2014,966
1	0,000	131,269	2015,067
1	0,000	131,269	2015,369
1	0,000	131,319	2015,570
1	0,000	131,319	2015,671
1	0,000	131,319	2015,973
1	0,000	131,319	2016,074
1	0,000	131,319	2016,275
1	0,000	131,370	2016,678
1	0,000	131,370	2016,879
1	0,000	131,370	2017,081
1	0,000	131,370	2017,282
1	0,000	131,370	2017,484
1	0,000	131,419	2017,786
1	0,000	131,419	2017,886
1	0,000	131,419	2018,088
1	0,000	131,419	2018,591
1	0,000	131,419	2018,793
1	0,000	131,470	2018,994
1	0,000	131,470	2019,095
1	0,000	131,470	2019,196
1	0,000	131,470	2019,598
1	0,000	131,470	2019,699
1	0,000	131,519	2020,001
1	0,000	131,519	2020,303
1	0,000	131,519	2020,505
1	0,000	131,519	2020,706
1	0,000	131,519	2021,109
1	0,000	131,570	2021,210
1	0,000	131,570	2021,411
1	0,000	131,570	2021,713
1	0,000	131,570	2021,915
1	0,000	131,570	2021,915
1	0,000	131,619	2022,318
1	0,000	131,619	2022,519
1	0,000	131,619	2022,821
1	0,000	131,619	2023,022
1	0,000	131,619	2023,224
1	0,000	131,670	2023,425
1	0,000	131,670	2023,627
1	0,000	131,670	2023,828
1	0,000	131,670	2024,130
1	0,000	131,670	2024,432
1	0,000	131,719	2024,634
1	0,000	131,719	2024,835
1	0,000	131,719	2025,037
1	0,000	131,719	2025,238
1	0,000	131,719	2025,540
1	0,000	131,769	2025,742
1	0,000	131,769	2026,044
1	0,000	131,769	2026,044
1	0,000	131,769	2026,447
1	0,000	131,769	2026,547
1	0,000	131,819	2026,749
1	0,000	131,819	2026,950
1	0,000	131,819	2027,252
1	0,000	131,819	2027,454
1	0,000	131,819	2027,151
1	0,000	131,869	2027,856
1	0,000	131,869	2028,159
1	0,000	131,869	2028,360
1	0,000	131,869	2028,561
1	0,000	131,869	2028,662
1	0,000	131,919	2028,964
1	0,000	131,919	2029,266
1	0,000	131,919	2029,468
1	0,000	131,919	2029,770
1	0,000	131,919	2029,971
1	0,000	131,970	2030,173
1	0,000	131,970	2030,273
1	0,000	131,970	2030,576
1	0,000	131,970	2030,878
1	0,000	131,970	2030,978
1	0,000	132,020	2031,180
1	0,000	132,020	2031,281
1	0,000	132,020	2031,784
1	0,000	132,020	2031,985
1	0,000	132,020	2031,985
1	0,000	132,070	2032,288
1	0,000	132,070	2032,489
1	0,000	132,070	2032,690
1	0,000	132,070	2032,892
1	0,000	132,070	2033,093
1	0,000	132,120	2033,395
1	0,000	132,120	2033,597
1	0,000	132,120	2033,698
1	0,000	132,120	2034,000
1	0,000	132,120	2034,402
1	0,000	132,171	2034,503
1	0,000	132,171	2034,705
1	0,000	132,171	2034,906
1	0,000	132,171	2035,107
1	0,000	132,171	2035,309
1	0,000	132,171	2035,309
1	0,000	132,221	2035,611
1	0,000	132,221	2035,812
1	0,000	132,221	2035,913
1	0,000	132,221	2036,316
1	0,000	132,221	2036,618
1	0,000	132,271	2036,719
1	0,000	132,271	2037,021
1	0,000	132,271	2037,222
1	0,000	132,271	2037,323
1	0,000	132,320	2037,625
1	0,000	132,320	2037,827
1	0,000	132,320	2038,129
1	0,000	132,320	2037,927
1	0,000	132,320	2038,632
1	0,000	132,320	2038,834
1	0,000	132,371	2039,035
1	0,000	132,371	2039,236
1	0,000	132,371	2039,337
1	0,000	132,371	2039,639
1	0,000	132,371	2039,841
1	0,000	132,421	2040,143
1	0,000	132,421	2040,546
1	0,000	132,421	2040,747
1	0,000	132,421	2040,848
1	0,000	132,471	2041,150
1	0,000	132,471	2041,553
1	0,000	132,471	2041,754
1	0,000	132,471	2041,956
1	0,000	132,471	2042,157
1	0,000	132,471	2042,358
1	0,000	132,521	2042,459
1	0,000	132,521	2042,661
1	0,000	132,521	2042,862
1	0,000	132,521	2043,265
1	0,000	132,571	2043,466
1	0,000	132,571	2043,466
1	0,000	132,571	2043,668
1	0,000	132,571	2044,070
1	0,000	132,571	2044,373
1	0,000	132,621	2044,574
1	0,000	132,621	2044,775
1	0,000	132,621	2045,078
1	0,000	132,621	2045,380
1	0,000	132,621	2045,480
1	0,000	132,621	2045,682
1	0,000	132,671	2045,883
1	0,000	132,671	2045,984
1	0,000	132,671	2046,185
1	0,000	132,671	2046,387
1	0,000	132,721	2046,689
1	0,000	132,721	2046,790
1	0,000	132,721	2047,092
1	0,000	132,721	2047,495
1	0,000	132,721	2047,696
1	0,000	132,721	2047,897
1	0,000	132,771	2048,199
1	0,000	132,771	2048,300
1	0,000	132,771	2048,502
1	0,000	132,771	2048,804
1	0,000	132,771	2048,904
1	0,000	132,821	2049,307
1	0,000	132,821	2049,509
1	0,000	132,821	2049,609
1	0,000	132,821	2049,911
1	0,000	132,871	2050,214
1	0,000	132,871	2050,415
1	0,000	132,871	2050,516
1	0,000	132,871	2050,818
1	0,000	132,871	2051,019
1	0,000	132,871	2051,321
1	0,000	132,921	2051,523
1	0,000	132,921	2051,724
1	0,000	132,921	2051,825
1	0,000	132,921	2052,026
1	0,000	132,921	2052,328
1	0,000	132,971	2052,530
1	0,000	132,971	2052,933
1	0,000	132,971	2053,134
1	0,000	132,971	2052,933
1	0,000	132,971	2053,638
1	0,000	133,022	2053,839
1	0,000	133,022	2054,141
1	0,000	133,022	2054,242
1	0,000	133,022	2054,544
1	0,000	133,022	2054,645
1	0,000	133,072	2054,846
1	0,000	133,072	2055,148
1	0,000	133,072	2055,350
1	0,000	133,072	2055,148
1	0,000	133,072	2055,853
1	0,000	133,122	2056,055
1	0,000	133,122	2056,256
1	0,000	133,122	2056,558
1	0,000	133,122	2056,659
1	0,000	133,122	2056,961
1	0,000	133,173	2057,263
1	0,000	133,173	2057,465
1	0,000	133,173	2057,666
1	0,000	133,173	2057,968
1	0,000	133,173	2058,170
1	0,000	133,223	2058,371
1	0,000	133,223	2058,572
1	0,000	133,223	2058,875
1	0,000	133,223	2059,076
1	0,000	133,223	2059,378
1	0,000	133,273	2059,579
1	0,000	133,273	2059,781
1	0,000	133,273	2059,982
1	0,000	133,273	2060,184
1	0,000	133,273	2060,486
1	0,000	133,323	2060,587
1	0,000	133,323	2060,788
1	0,000	133,323	2060,989
1	0,000	133,323	2061,292
1	0,000	133,323	2061,493
1	0,000	133,373	2061,694
1	0,000	133,373	2061,996
1	0,000	133,373	2062,097
1	0,000	133,373	2062,399
1	0,000	133,373	2062,701
1	0,000	133,423	2062,903
1	0,000	133,423	2063,104
1	0,000	133,423	2063,306
1	0,000	133,423	2063,608
1	0,000	133,423	2063,809
1	0,000	133,473	2064,011
1	0,000	133,473	2064,413
1	0,000	133,473	2064,615
1	0,000	133,473	2064,816
1	0,000	133,473	2065,018
1	0,000	133,524	2065,219
1	0,000	133,524	2065,421
1	0,000	133,524	2065,521
1	0,000	133,524	2065,924
1	0,000	133,524	2066,125
1	0,000	133,574	2066,327
1	0,000	133,574	2066,528
1	0,000	133,574	2066,830
1	0,000	133,574	2067,032
1	0,000	133,574	2067,233
1	0,000	133,574	2067,535
1	0,000	133,625	2067,737
1	0,000	133,625	2068,039
1	0,000	133,625	2068,240
1	0,000	133,625	2068,442
1	0,000	133,675	2068,643
1	0,000	133,675	2068,744
1	0,000	133,675	2069,046
1	0,000	133,675	2069,348
1	0,000	133,675	2069,550
1	0,000	133,725	2069,751
1	0,000	133,725	2069,952
1	0,000	133,725	2070,255
1	0,000	133,725	2070,355
1	0,000	133,725	2070,758
1	0,000	133,775	2070,959
1	0,000	133,775	2070,657
1	0,000	133,775	2071,362
1	0,000	133,775	2071,463
1	0,000	133,775	2071,866
1	0,000	133,825	2072,067
1	0,000	133,825	2072,470
1	0,000	133,825	2072,672
1	0,000	133,825	2072,873
1	0,000	133,825	2073,074
1	0,000	133,876	2073,276
1	0,000	133,876	2073,477
1	0,000	133,876	2073,679
1	0,000	133,876	2073,880
1	0,000	133,876	2074,182
1	0,000	133,925	2074,384
1	0,000	133,925	2074,686
1	0,000	133,925	2074,887
1	0,000	133,925	2075,089
1	0,000	133,925	2075,391
1	0,000	133,977	2075,491
1	0,000	133,977	2075,894
1	0,000	133,977	2076,096
1	0,000	133,977	2076,398
1	0,000	133,977	2076,599
1	0,000	134,027	2076,801
1	0,000	134,027	2077,002
1	0,000	134,027	2077,203
1	0,000	134,027	2077,505
1	0,000	134,027	2077,707
1	0,000	134,076	2078,009
1	0,000	134,076	2078,110
1	0,000	134,076	2078,412
1	0,000	134,076	2078,613
1	0,000	134,076	2078,815
1	0,000	134,126	2079,016
1	0,000	134,126	2079,318
1	0,000	134,126	2079,520
1	0,000	134,126	2079,922
1	0,000	134,126	2080,023
1	0,000	134,177	2080,325
1	0,000	134,177	2080,426
1	0,000	134,177	2080,627
1	0,000	134,177	2080,930
1	0,000	134,177	2081,232
1	0,000	134,227	2081,433
1	0,000	134,227	2081,635
1	0,000	134,227	2081,937
1	0,000	134,227	2082,037
1	0,000	134,227	2082,339
1	0,000	134,277	2082,541
1	0,000	134,277	2082,742
1	0,000	134,277	2083,044
1	0,000	134,277	2083,246
1	0,000	134,277	2083,649
1	0,000	134,327	2083,749
1	0,000	134,327	2083,951
1	0,000	134,327	2084,253
1	0,000	134,327	2084,454
1	0,000	134,327	2084,756
1	0,000	134,377	2084,958
1	0,000	134,377	2085,159
1	0,000	134,377	2085,361
1	0,000	134,377	2085,663
1	0,000	134,377	2085,864
1	0,000	134,428	2086,066
1	0,000	134,428	2086,368
1	0,000	134,428	2086,670
1	0,000	134,428	2086,871
1	0,000	134,428	2087,073
1	0,000	134,478	2087,375
1	0,000	134,478	2087,677
1	0,000	134,478	2087,878
1	0,000	134,478	2088,181
1	0,000	134,478	2088,281
1	0,000	134,528	2088,483
1	0,000	134,528	2088,785
1	0,000	134,528	2088,986
1	0,000	134,528	2089,188
1	0,000	134,528	2089,389
1	0,000	134,578	2089,691
1	0,000	134,578	2089,893
1	0,000	134,578	2090,094
1	0,000	134,578	2090,396
1	0,000	134,578	2090,598
1	0,000	134,628	2090,900
1	0,000	134,628	2091,101
1	0,000	134,628	2091,403
1	0,000	134,628	2091,605
1	0,000	134,628	2091,806
1	0,000	134,677	2092,007
1	0,000	134,677	2092,209
1	0,000	134,677	2092,511
1	0,000	134,677	2092,712
1	0,000	134,677	2092,914
1	0,000	134,728	2093,115
1	0,000	134,728	2093,417
1	0,000	134,728	2093,719
1	0,000	134,728	2093,921
1	0,000	134,728	2094,122
1	0,000	134,778	2094,424
1	0,000	134,778	2094,727
1	0,000	134,778	2094,928
1	0,000	134,778	2095,230
1	0,000	134,778	2095,432
1	0,000	134,828	2095,532
1	0,000	134,828	2095,834
1	0,000	134,828	2096,036
1	0,000	134,828	2096,237
1	0,000	134,828	2096,338
1	0,000	134,878	2096,841
1	0,000	134,878	2097,043
1	0,000	134,878	2097,144
1	0,000	134,878	2097,446
1	0,000	134,878	2097,748
1	0,000	134,929	2097,949
1	0,000	134,929	2098,251
1	0,000	134,929	2098,453
1	0,000	134,929	2098,654
1	0,000	134,929	2098,856
1	0,000	134,978	2099,158
1	0,000	134,978	2099,359
1	0,000	134,978	2099,661
1	0,000	134,978	2099,863
1	0,000	134,978	2100,064
1	0,000	135,029	2100,165
1	0,000	135,029	2100,467
1	0,000	135,029	2100,668
1	0,000	135,029	2100,970
1	0,000	135,029	2101,273
1	0,000	135,079	2101,575
1	0,000	135,079	2101,776
1	0,000	135,079	2102,078
1	0,000	135,079	2102,179
1	0,000	135,079	2102,481
1	0,000	135,129	2102,682
1	0,000	135,129	2102,884
1	0,000	135,129	2103,085
1	0,000	135,129	2103,387
1	0,000	135,129	2103,589
1	0,000	135,179	2103,690
1	0,000	135,179	2104,092
1	0,000	135,179	2104,294
1	0,000	135,179	2104,596
1	0,000	135,179	2104,898
1	0,000	135,228	2105,099
1	0,000	135,228	2105,301
1	0,000	135,228	2105,502
1	0,000	135,228	2105,704
1	0,000	135,228	2106,006
1	0,000	135,279	2106,207
1	0,000	135,279	2106,509
1	0,000	135,279	2106,711
1	0,000	135,279	2106,912
1	0,000	135,279	2107,013
1	0,000	135,329	2107,416
1	0,000	135,329	2107,516
1	0,000	135,329	2107,718
1	0,000	135,329	2107,919
1	0,000	135,329	2108,423
1	0,000	135,379	2108,423
1	0,000	135,379	2108,926
1	0,000	135,379	2109,027
1	0,000	135,379	2109,430
1	0,000	135,379	2109,631
1	0,000	135,429	2109,833
1	0,000	135,429	2110,034
1	0,000	135,429	2110,236
1	0,000	135,429	2110,236
1	0,000	135,429	2110,638
1	0,000	135,479	2111,041
1	0,000	135,479	2111,142
1	0,000	135,479	2111,545
1	0,000	135,479	2111,746
1	0,000	135,479	2111,847
1	0,000	135,529	2112,149
1	0,000	135,529	2112,451
1	0,000	135,529	2112,753
1	0,000	135,529	2112,955
1	0,000	135,529	2113,156
1	0,000	135,579	2113,458
1	0,000	135,579	2113,559
1	0,000	135,579	2113,861
1	0,000	135,579	2114,062
1	0,000	135,579	2114,264
1	0,000	135,628	2114,566
1	0,000	135,628	2114,767
1	0,000	135,628	2114,969
1	0,000	135,628	2115,271
1	0,000	135,628	2115,472
1	0,000	135,679	2115,775
1	0,000	135,679	2116,077
1	0,000	135,679	2116,278
1	0,000	135,679	2116,479
1	0,000	135,679	2116,681
1	0,000	135,729	2116,882
1	0,000	135,729	2117,184
1	0,000	135,729	2117,386
1	0,000	135,729	2117,688
1	0,000	135,729	2117,990
1	0,000	135,779	2118,192
1	0,000	135,779	2118,494
1	0,000	135,779	2118,594
1	0,000	135,779	2118,896
1	0,000	135,779	2119,098
1	0,000	135,829	2119,400
1	0,000	135,829	2119,702
1	0,000	135,829	2119,904
1	0,000	135,829	2120,206
1	0,000	135,829	2120,407
1	0,000	135,879	2120,609
1	0,000	135,879	2120,810
1	0,000	135,879	2121,112
1	0,000	135,879	2121,213
1	0,000	135,879	2121,616
1	0,000	135,879	2121,817
1	0,000	135,929	2122,018
1	0,000	135,929	2122,321
1	0,000	135,929	2122,522
1	0,000	135,929	2122,824
1	0,000	135,929	2123,026
1	0,000	135,980	2123,328
1	0,000	135,980	2123,529
1	0,000	135,980	2123,630
1	0,000	135,980	2124,033
1	0,000	136,030	2124,234
1	0,000	136,030	2124,435
1	0,000	136,030	2124,637
1	0,000	136,030	2124,939
1	0,000	136,030	2125,140
1	0,000	136,030	2125,443
1	0,000	136,080	2125,644
1	0,000	136,080	2125,845
1	0,000	136,080	2126,147
1	0,000	136,080	2126,450
1	0,000	136,080	2126,651
1	0,000	136,130	2126,852
1	0,000	136,130	2127,054
1	0,000	136,130	2127,356
1	0,000	136,130	2127,557
1	0,000	136,130	2127,759
1	0,000	136,180	2128,061
1	0,000	136,180	2128,464
1	0,000	136,180	2128,665
1	0,000	136,180	2128,867
1	0,000	136,180	2129,068
1	0,000	136,230	2129,269
1	0,000	136,230	2129,471
1	0,000	136,230	2129,773
1	0,000	136,230	2129,974
1	0,000	136,230	2130,276
1	0,000	136,280	2130,478
1	0,000	136,280	2130,780
1	0,000	136,280	2130,981
1	0,000	136,280	2131,284
1	0,000	136,280	2131,485
1	0,000	136,330	2131,686
1	0,000	136,330	2131,989
1	0,000	136,330	2132,190
1	0,000	136,330	2132,492
1	0,000	136,330	2132,693
1	0,000	136,380	2132,996
1	0,000	136,380	2133,197
1	0,000	136,380	2133,398
1	0,000	136,380	2133,701
1	0,000	136,380	2133,902
1	0,000	136,430	2134,204
1	0,000	136,430	2134,406
1	0,000	136,430	2134,607
1	0,000	136,430	2134,909
1	0,000	136,430	2135,211
1	0,000	136,480	2135,614
1	0,000	136,480	2135,715
1	0,000	136,480	2135,916
1	0,000	136,480	2136,118
1	0,000	136,480	2136,420
1	0,000	136,530	2136,722
1	0,000	136,530	2137,024
1	0,000	136,530	2137,225
1	0,000	136,530	2137,427
1	0,000	136,530	2137,628
1	0,000	136,580	2137,930
1	0,000	136,580	2138,132
1	0,000	136,580	2138,333
1	0,000	136,580	2138,635
1	0,000	136,580	2138,837
1	0,000	136,630	2139,139
1	0,000	136,630	2139,340
1	0,000	136,630	2139,542
1	0,000	136,630	2139,844
1	0,000	136,630	2140,045
1	0,000	136,680	2140,247
1	0,000	136,680	2140,448
1	0,000	136,680	2140,750
1	0,000	136,680	2141,052
1	0,000	136,680	2141,254
1	0,000	136,730	2141,556
1	0,000	136,730	2141,757
1	0,000	136,730	2141,959
1	0,000	136,730	2142,261
1	0,000	136,730	2142,462
1	0,000	136,780	2142,764
1	0,000	136,780	2142,966
1	0,000	136,780	2143,268
1	0,000	136,780	2143,469
1	0,000	136,780	2143,570
1	0,000	136,830	2143,872
1	0,000	136,830	2144,174
1	0,000	136,830	2144,577
1	0,000	136,830	2144,577
1	0,000	136,830	2144,879
1	0,000	136,880	2145,181
1	0,000	136,880	2145,383
1	0,000	136,880	2145,786
1	0,000	136,880	2145,987
1	0,000	136,880	2146,390
1	0,000	136,930	2146,490
1	0,000	136,930	2146,591
1	0,000	136,930	2146,893
1	0,000	136,930	2147,195
1	0,000	136,930	2147,397
1	0,000	136,980	2147,699
1	0,000	136,980	2147,900
1	0,000	136,980	2148,102
1	0,000	136,980	2148,404
1	0,000	136,980	2148,605
1	0,000	137,031	2148,907
1	0,000	137,031	2149,109
1	0,000	137,031	2149,411
1	0,000	137,031	2149,713
1	0,000	137,031	2150,015
1	0,000	137,081	2150,317
1	0,000	137,081	2150,418
1	0,000	137,081	2150,620
1	0,000	137,081	2150,821
1	0,000	137,081	2151,022
1	0,000	137,130	2151,324
1	0,000	137,130	2151,526
1	0,000	137,130	2151,929
1	0,000	137,130	2152,130
1	0,000	137,130	2152,332
1	0,000	137,181	2152,634
1	0,000	137,181	2152,835
1	0,000	137,181	2152,835
1	0,000	137,181	2153,339
1	0,000	137,181	2153,641
1	0,000	137,231	2153,842
1	0,000	137,231	2154,044
1	0,000	137,231	2154,346
1	0,000	137,231	2154,446
1	0,000	137,231	2154,849
1	0,000	137,281	2155,051
1	0,000	137,281	2155,353
1	0,000	137,281	2155,554
1	0,000	137,281	2155,856
1	0,000	137,281	2156,058
1	0,000	137,331	2156,360
1	0,000	137,331	2156,561
1	0,000	137,331	2156,863
1	0,000	137,331	2157,065
1	0,000	137,331	2157,367
1	0,000	137,381	2157,568
1	0,000	137,381	2157,770
1	0,000	137,381	2158,072
1	0,000	137,381	2158,273
1	0,000	137,381	2158,575
1	0,000	137,431	2158,878
1	0,000	137,431	2159,079
1	0,000	137,431	2159,381
1	0,000	137,431	2159,583
1	0,000	137,431	2159,885
1	0,000	137,481	2160,086
1	0,000	137,481	2160,287
1	0,000	137,481	2160,590
1	0,000	137,481	2160,791
1	0,000	137,481	2161,093
1	0,000	137,532	2161,295
1	0,000	137,532	2161,597
1	0,000	137,532	2161,798
1	0,000	137,532	2162,100
1	0,000	137,532	2162,302
1	0,000	137,582	2162,604
1	0,000	137,582	2162,805
1	0,000	137,582	2163,007
1	0,000	137,582	2163,309
1	0,000	137,582	2163,510
1	0,000	137,632	2163,913
1	0,000	137,632	2164,114
1	0,000	137,632	2164,316
1	0,000	137,632	2164,517
1	0,000	137,632	2164,719
1	0,000	137,683	2165,021
1	0,000	137,683	2165,222
1	0,000	137,683	2165,524
1	0,000	137,683	2165,726
1	0,000	137,683	2166,028
1	0,000	137,732	2166,129
1	0,000	137,732	2166,531
1	0,000	137,732	2166,733
1	0,000	137,732	2166,934
1	0,000	137,732	2167,236
1	0,000	137,783	2167,438
1	0,000	137,783	2167,639
1	0,000	137,783	2167,941
1	0,000	137,783	2168,143
1	0,000	137,783	2168,546
1	0,000	137,833	2168,646
1	0,000	137,833	2168,948
1	0,000	137,833	2169,150
1	0,000	137,833	2169,452
1	0,000	137,833	2169,754
1	0,000	137,883	2169,955
1	0,000	137,883	2170,258
1	0,000	137,883	2170,459
1	0,000	137,883	2170,761
1	0,000	137,883	2170,963
1	0,000	137,933	2171,164
1	0,000	137,933	2171,466
1	0,000	137,933	2171,768
1	0,000	137,933	2171,970
1	0,000	137,933	2172,171
1	0,000	137,983	2172,372
1	0,000	137,983	2172,675
1	0,000	137,983	2172,876
1	0,000	137,983	2173,178
1	0,000	137,983	2173,480
1	0,000	138,033	2173,682
1	0,000	138,033	2173,984
1	0,000	138,033	2174,185
1	0,000	138,033	2174,387
1	0,000	138,033	2174,689
1	0,000	138,083	2174,991
1	0,000	138,083	2175,192
1	0,000	138,083	2175,293
1	0,000	138,083	2175,696
1	0,000	138,083	2175,897
1	0,000	138,133	2176,199
1	0,000	138,133	2176,401
1	0,000	138,133	2176,602
1	0,000	138,133	2176,904
1	0,000	138,133	2177,106
1	0,000	138,183	2177,408
1	0,000	138,183	2177,710
1	0,000	138,183	2177,911
1	0,000	138,183	2177,811
1	0,000	138,183	2178,516
1	0,000	138,233	2178,717
1	0,000	138,233	2179,019
1	0,000	138,233	2179,120
1	0,000	138,233	2179,321
1	0,000	138,233	2179,724
1	0,000	138,283	2179,926
1	0,000	138,283	2180,228
1	0,000	138,283	2180,429
1	0,000	138,283	2180,731
1	0,000	138,283	2180,933
1	0,000	138,333	2181,335
1	0,000	138,333	2181,537
1	0,000	138,333	2181,738
1	0,000	138,333	2181,940
1	0,000	138,333	2182,141
1	0,000	138,383	2182,544
1	0,000	138,383	2182,745
1	0,000	138,383	2183,047
1	0,000	138,383	2183,249
1	0,000	138,383	2183,450
1	0,000	138,433	2183,752
1	0,000	138,433	2183,954
1	0,000	138,433	2184,256
1	0,000	138,433	2184,457
1	0,000	138,433	2184,760
1	0,000	138,483	2185,062
1	0,000	138,483	2185,162
1	0,000	138,483	2185,565
1	0,000	138,483	2185,767
1	0,000	138,483	2186,069
1	0,000	138,534	2186,270
1	0,000	138,534	2186,472
1	0,000	138,534	2186,774
1	0,000	138,534	2186,975
1	0,000	138,534	2187,277
1	0,000	138,584	2187,479
1	0,000	138,584	2187,781
1	0,000	138,584	2187,982
1	0,000	138,584	2188,284
1	0,000	138,584	2188,486
1	0,000	138,634	2188,687
1	0,000	138,634	2189,090
1	0,000	138,634	2189,291
1	0,000	138,634	2189,594
1	0,000	138,634	2189,795
1	0,000	138,684	2190,097
1	0,000	138,684	2190,298
1	0,000	138,684	2190,500
1	0,000	138,684	2190,802
1	0,000	138,684	2191,003
1	0,000	138,735	2191,306
1	0,000	138,735	2191,608
1	0,000	138,735	2191,809
1	0,000	138,735	2192,111
1	0,000	138,735	2192,313
1	0,000	138,785	2192,615
1	0,000	138,785	2192,917
1	0,000	138,785	2193,118
1	0,000	138,785	2193,320
1	0,000	138,785	2193,521
1	0,000	138,835	2193,924
1	0,000	138,835	2194,226
1	0,000	138,835	2194,327
1	0,000	138,835	2194,730
1	0,000	138,835	2194,830
1	0,000	138,885	2195,132
1	0,000	138,885	2195,435
1	0,000	138,885	2195,737
1	0,000	138,885	2195,938
1	0,000	138,885	2196,140
1	0,000	138,935	2196,442
1	0,000	138,935	2196,643
1	0,000	138,935	2196,945
1	0,000	138,935	2197,247
1	0,000	138,935	2197,549
1	0,000	138,985	2197,650
1	0,000	138,985	2198,053
1	0,000	138,985	2198,254
1	0,000	138,985	2198,456
1	0,000	138,985	2198,657
1	0,000	139,035	2198,859
1	0,000	139,035	2199,161
1	0,000	139,035	2199,463
1	0,000	139,035	2199,664
1	0,000	139,035	2199,966
1	0,000	139,085	2200,168
1	0,000	139,085	2200,470
1	0,000	139,085	2200,772
1	0,000	139,085	2201,074
1	0,000	139,085	2201,276
1	0,000	139,135	2201,376
1	0,000	139,135	2201,678
1	0,000	139,135	2201,981
1	0,000	139,135	2202,182
1	0,000	139,135	2202,383
1	0,000	139,185	2202,686
1	0,000	139,185	2202,988
1	0,000	139,185	2203,290
1	0,000	139,185	2203,491
1	0,000	139,185	2203,793
1	0,000	139,235	2204,095
1	0,000	139,235	2204,398
1	0,000	139,235	2204,599
1	0,000	139,235	2204,800
1	0,000	139,235	2205,103
1	0,000	139,285	2205,304
1	0,000	139,285	2205,505
1	0,000	139,285	2205,807
1	0,000	139,285	2206,110
1	0,000	139,285	2206,412
1	0,000	139,335	2206,613
1	0,000	139,335	2206,915
1	0,000	139,335	2207,117
1	0,000	139,335	2207,419
1	0,000	139,335	2207,620
1	0,000	139,385	2207,822
1	0,000	139,385	2208,124
1	0,000	139,385	2208,325
1	0,000	139,385	2208,627
1	0,000	139,385	2208,929
1	0,000	139,435	2209,131
1	0,000	139,435	2209,433
1	0,000	139,435	2209,634
1	0,000	139,435	2209,937
1	0,000	139,435	2209,836
1	0,000	139,486	2210,440
1	0,000	139,486	2210,641
1	0,000	139,486	2210,944
1	0,000	139,486	2211,145
1	0,000	139,486	2211,548
1	0,000	139,536	2211,548
1	0,000	139,536	2211,850
1	0,000	139,536	2212,253
1	0,000	139,536	2212,555
1	0,000	139,536	2212,756
1	0,000	139,586	2212,958
1	0,000	139,586	2213,260
1	0,000	139,586	2213,461
1	0,000	139,586	2213,763
1	0,000	139,586	2214,066
1	0,000	139,636	2214,368
1	0,000	139,636	2214,569
1	0,000	139,636	2214,871
1	0,000	139,636	2215,073
1	0,000	139,636	2215,274
1	0,000	139,686	2215,576
1	0,000	139,686	2215,778
1	0,000	139,686	2216,080
1	0,000	139,686	2216,382
1	0,000	139,686	2216,583
1	0,000	139,736	2216,785
1	0,000	139,736	2217,087
1	0,000	139,736	2217,389
1	0,000	139,736	2217,590
1	0,000	139,736	2217,892
1	0,000	139,786	2218,094
1	0,000	139,786	2218,396
1	0,000	139,786	2218,597
1	0,000	139,786	2218,900
1	0,000	139,786	2219,202
1	0,000	139,836	2219,302
1	0,000	139,836	2219,806
1	0,000	139,836	2220,007
1	0,000	139,836	2220,209
1	0,000	139,836	2220,410
1	0,000	139,885	2220,712
1	0,000	139,885	2221,014
1	0,000	139,885	2221,216
1	0,000	139,885	2221,317
1	0,000	139,885	2221,518
1	0,000	139,928	2221,619
1	0,000	139,928	2222,021
1	0,000	139,928	2222,122
1	0,000	139,928	2222,424
1	0,000	139,928	2222,525
1	0,000	139,961	2222,726
1	0,000	139,961	2222,726
1	0,000	139,961	2222,928
1	0,000	139,961	2223,029
1	0,000	139,961	2223,230
1	0,000	139,984	2223,230
1	0,000	139,984	2223,331
1	0,000	139,984	2223,431
1	0,000	139,984	2223,532
1	0,000	139,984	2223,532
1	0,000	139,997	2223,633
1	0,000	139,997	2223,633
1	0,000	139,997	2223,633
1	0,000	139,997	2223,633
1	0,000	139,997	2223,633
1	0,000	140,000	2223,633
1	0,000	140,000	2223,633
1	0,000	140,000	2223,633
1	0,000	140,000	2223,633
1	0,000	140,000	2223,633
1	0,000	140,000	2223,633
