Col.n° Rot(deg) Lin(mm) CHR(um)
1	0,000	80,088	1331,561
1	0,000	80,088	1331,461
1	0,000	80,088	1331,561
1	0,000	80,135	1331,662
1	0,000	80,135	1331,561
1	0,000	80,135	1331,561
1	0,000	80,135	1331,662
1	0,000	80,135	1331,763
1	0,000	80,184	1331,763
1	0,000	80,184	1331,763
1	0,000	80,184	1331,964
1	0,000	80,184	1331,863
1	0,000	80,184	1331,964
1	0,000	80,234	1331,964
1	0,000	80,234	1332,065
1	0,000	80,234	1332,065
1	0,000	80,234	1332,065
1	0,000	80,234	1332,166
1	0,000	80,285	1332,266
1	0,000	80,285	1332,266
1	0,000	80,285	1332,367
1	0,000	80,285	1332,367
1	0,000	80,285	1332,367
1	0,000	80,334	1332,367
1	0,000	80,334	1332,468
1	0,000	80,334	1332,468
1	0,000	80,334	1332,568
1	0,000	80,334	1332,568
1	0,000	80,384	1332,568
1	0,000	80,384	1332,669
1	0,000	80,384	1332,669
1	0,000	80,384	1332,770
1	0,000	80,384	1332,770
1	0,000	80,434	1332,770
1	0,000	80,434	1332,770
1	0,000	80,434	1332,870
1	0,000	80,434	1332,870
1	0,000	80,434	1332,870
1	0,000	80,484	1333,072
1	0,000	80,484	1333,072
1	0,000	80,484	1333,072
1	0,000	80,484	1333,173
1	0,000	80,484	1333,173
1	0,000	80,535	1333,173
1	0,000	80,535	1333,273
1	0,000	80,535	1333,273
1	0,000	80,535	1333,273
1	0,000	80,535	1333,374
1	0,000	80,584	1333,374
1	0,000	80,584	1333,374
1	0,000	80,584	1333,475
1	0,000	80,584	1333,575
1	0,000	80,584	1333,676
1	0,000	80,634	1333,676
1	0,000	80,634	1333,777
1	0,000	80,634	1333,878
1	0,000	80,634	1333,777
1	0,000	80,634	1333,878
1	0,000	80,685	1333,777
1	0,000	80,685	1333,878
1	0,000	80,685	1333,878
1	0,000	80,685	1333,878
1	0,000	80,685	1333,978
1	0,000	80,734	1334,079
1	0,000	80,734	1334,079
1	0,000	80,734	1334,180
1	0,000	80,734	1334,280
1	0,000	80,734	1334,280
1	0,000	80,784	1334,280
1	0,000	80,784	1334,280
1	0,000	80,784	1334,381
1	0,000	80,784	1334,381
1	0,000	80,784	1334,583
1	0,000	80,834	1334,583
1	0,000	80,834	1334,583
1	0,000	80,834	1334,583
1	0,000	80,834	1334,683
1	0,000	80,834	1334,683
1	0,000	80,885	1334,784
1	0,000	80,885	1334,784
1	0,000	80,885	1334,885
1	0,000	80,885	1334,885
1	0,000	80,885	1334,885
1	0,000	80,935	1334,885
1	0,000	80,935	1335,086
1	0,000	80,935	1335,086
1	0,000	80,935	1335,187
1	0,000	80,935	1335,187
1	0,000	80,985	1335,086
1	0,000	80,985	1335,287
1	0,000	80,985	1335,287
1	0,000	80,985	1335,287
1	0,000	80,985	1335,388
1	0,000	81,035	1335,388
1	0,000	81,035	1335,489
1	0,000	81,035	1334,985
1	0,000	81,035	1335,590
1	0,000	81,035	1335,590
1	0,000	81,085	1335,489
1	0,000	81,085	1335,590
1	0,000	81,085	1335,690
1	0,000	81,085	1335,590
1	0,000	81,085	1335,791
1	0,000	81,135	1335,892
1	0,000	81,135	1335,892
1	0,000	81,135	1335,892
1	0,000	81,135	1335,892
1	0,000	81,135	1335,992
1	0,000	81,185	1335,992
1	0,000	81,185	1336,093
1	0,000	81,185	1336,093
1	0,000	81,185	1335,791
1	0,000	81,185	1336,194
1	0,000	81,235	1336,295
1	0,000	81,235	1336,295
1	0,000	81,235	1336,295
1	0,000	81,235	1336,395
1	0,000	81,235	1336,496
1	0,000	81,285	1336,496
1	0,000	81,285	1336,597
1	0,000	81,285	1336,597
1	0,000	81,285	1336,597
1	0,000	81,285	1336,597
1	0,000	81,335	1336,697
1	0,000	81,335	1336,697
1	0,000	81,335	1336,798
1	0,000	81,335	1336,899
1	0,000	81,335	1336,798
1	0,000	81,385	1336,798
1	0,000	81,385	1336,899
1	0,000	81,385	1337,000
1	0,000	81,385	1337,000
1	0,000	81,385	1337,100
1	0,000	81,435	1337,100
1	0,000	81,435	1337,100
1	0,000	81,435	1337,100
1	0,000	81,435	1337,302
1	0,000	81,435	1337,100
1	0,000	81,485	1337,402
1	0,000	81,485	1337,604
1	0,000	81,485	1337,503
1	0,000	81,485	1337,302
1	0,000	81,485	1337,503
1	0,000	81,534	1337,604
1	0,000	81,534	1337,704
1	0,000	81,534	1337,704
1	0,000	81,534	1337,805
1	0,000	81,534	1337,704
1	0,000	81,585	1337,805
1	0,000	81,585	1337,906
1	0,000	81,585	1337,906
1	0,000	81,585	1337,906
1	0,000	81,585	1338,007
1	0,000	81,635	1338,007
1	0,000	81,635	1338,007
1	0,000	81,635	1338,107
1	0,000	81,635	1338,107
1	0,000	81,635	1338,208
1	0,000	81,685	1338,409
1	0,000	81,685	1338,309
1	0,000	81,685	1338,309
1	0,000	81,685	1338,309
1	0,000	81,685	1338,409
1	0,000	81,685	1338,309
1	0,000	81,735	1338,309
1	0,000	81,735	1338,611
1	0,000	81,735	1338,611
1	0,000	81,735	1338,611
1	0,000	81,735	1338,611
1	0,000	81,785	1338,812
1	0,000	81,785	1338,712
1	0,000	81,785	1338,712
1	0,000	81,785	1338,913
1	0,000	81,785	1338,913
1	0,000	81,835	1339,014
1	0,000	81,835	1339,014
1	0,000	81,835	1339,014
1	0,000	81,835	1339,114
1	0,000	81,886	1339,215
1	0,000	81,886	1339,215
1	0,000	81,886	1339,316
1	0,000	81,886	1339,215
1	0,000	81,886	1339,316
1	0,000	81,886	1339,316
1	0,000	81,936	1339,316
1	0,000	81,936	1339,417
1	0,000	81,936	1339,517
1	0,000	81,936	1339,618
1	0,000	81,936	1339,618
1	0,000	81,986	1339,719
1	0,000	81,986	1339,618
1	0,000	81,986	1339,719
1	0,000	81,986	1339,719
1	0,000	81,986	1339,819
1	0,000	82,036	1339,920
1	0,000	82,036	1339,819
1	0,000	82,036	1339,819
1	0,000	82,036	1339,920
1	0,000	82,036	1340,021
1	0,000	82,086	1339,920
1	0,000	82,086	1340,021
1	0,000	82,086	1340,121
1	0,000	82,086	1340,222
1	0,000	82,086	1340,222
1	0,000	82,136	1340,323
1	0,000	82,136	1340,424
1	0,000	82,136	1340,424
1	0,000	82,136	1340,424
1	0,000	82,136	1340,524
1	0,000	82,186	1340,524
1	0,000	82,186	1340,524
1	0,000	82,186	1340,625
1	0,000	82,186	1340,625
1	0,000	82,186	1340,726
1	0,000	82,236	1340,826
1	0,000	82,236	1340,826
1	0,000	82,236	1340,927
1	0,000	82,236	1341,028
1	0,000	82,236	1340,524
1	0,000	82,286	1341,129
1	0,000	82,286	1341,129
1	0,000	82,286	1341,129
1	0,000	82,286	1341,129
1	0,000	82,337	1341,229
1	0,000	82,337	1341,330
1	0,000	82,337	1341,229
1	0,000	82,337	1341,431
1	0,000	82,337	1341,330
1	0,000	82,337	1341,531
1	0,000	82,387	1341,733
1	0,000	82,387	1341,733
1	0,000	82,387	1341,632
1	0,000	82,387	1341,632
1	0,000	82,387	1341,733
1	0,000	82,437	1341,733
1	0,000	82,437	1341,733
1	0,000	82,437	1341,934
1	0,000	82,437	1341,934
1	0,000	82,437	1341,934
1	0,000	82,487	1342,035
1	0,000	82,487	1342,035
1	0,000	82,487	1342,136
1	0,000	82,487	1342,136
1	0,000	82,487	1342,136
1	0,000	82,538	1342,236
1	0,000	82,538	1342,337
1	0,000	82,538	1342,337
1	0,000	82,538	1342,337
1	0,000	82,538	1342,337
1	0,000	82,588	1342,438
1	0,000	82,588	1342,538
1	0,000	82,588	1342,639
1	0,000	82,588	1342,538
1	0,000	82,588	1342,740
1	0,000	82,639	1342,841
1	0,000	82,639	1342,538
1	0,000	82,639	1342,941
1	0,000	82,639	1343,143
1	0,000	82,639	1342,941
1	0,000	82,689	1343,042
1	0,000	82,689	1343,042
1	0,000	82,689	1343,042
1	0,000	82,689	1343,143
1	0,000	82,689	1343,243
1	0,000	82,738	1343,243
1	0,000	82,738	1343,243
1	0,000	82,738	1343,344
1	0,000	82,738	1343,344
1	0,000	82,738	1343,344
1	0,000	82,789	1343,445
1	0,000	82,789	1343,344
1	0,000	82,789	1343,646
1	0,000	82,789	1343,747
1	0,000	82,789	1343,646
1	0,000	82,839	1343,747
1	0,000	82,839	1343,747
1	0,000	82,839	1343,848
1	0,000	82,839	1343,848
1	0,000	82,839	1343,948
1	0,000	82,889	1344,049
1	0,000	82,889	1344,150
1	0,000	82,889	1344,150
1	0,000	82,889	1344,150
1	0,000	82,889	1344,250
1	0,000	82,939	1344,351
1	0,000	82,939	1344,250
1	0,000	82,939	1344,250
1	0,000	82,939	1344,553
1	0,000	82,939	1344,452
1	0,000	82,989	1344,553
1	0,000	82,989	1344,553
1	0,000	82,989	1344,553
1	0,000	82,989	1344,653
1	0,000	82,989	1344,653
1	0,000	83,040	1344,653
1	0,000	83,040	1344,754
1	0,000	83,040	1344,855
1	0,000	83,040	1344,955
1	0,000	83,040	1345,056
1	0,000	83,090	1345,056
1	0,000	83,090	1345,056
1	0,000	83,090	1345,056
1	0,000	83,090	1344,955
1	0,000	83,090	1345,157
1	0,000	83,140	1345,157
1	0,000	83,140	1345,258
1	0,000	83,140	1345,258
1	0,000	83,140	1345,258
1	0,000	83,140	1345,358
1	0,000	83,190	1345,560
1	0,000	83,190	1345,560
1	0,000	83,190	1345,560
1	0,000	83,190	1345,660
1	0,000	83,190	1345,761
1	0,000	83,240	1345,862
1	0,000	83,240	1345,761
1	0,000	83,240	1345,862
1	0,000	83,240	1345,761
1	0,000	83,240	1345,963
1	0,000	83,291	1345,963
1	0,000	83,291	1346,063
1	0,000	83,291	1346,164
1	0,000	83,291	1346,265
1	0,000	83,291	1346,365
1	0,000	83,341	1346,063
1	0,000	83,341	1346,365
1	0,000	83,341	1346,365
1	0,000	83,341	1346,164
1	0,000	83,341	1346,265
1	0,000	83,391	1346,567
1	0,000	83,391	1346,567
1	0,000	83,391	1346,667
1	0,000	83,391	1346,768
1	0,000	83,391	1346,768
1	0,000	83,441	1346,869
1	0,000	83,441	1346,869
1	0,000	83,441	1346,970
1	0,000	83,441	1346,970
1	0,000	83,441	1347,070
1	0,000	83,491	1347,070
1	0,000	83,491	1347,171
1	0,000	83,491	1347,171
1	0,000	83,491	1347,171
1	0,000	83,491	1347,272
1	0,000	83,541	1347,372
1	0,000	83,541	1347,574
1	0,000	83,541	1347,574
1	0,000	83,541	1347,675
1	0,000	83,541	1347,574
1	0,000	83,591	1347,574
1	0,000	83,591	1347,574
1	0,000	83,591	1347,775
1	0,000	83,591	1347,775
1	0,000	83,591	1347,775
1	0,000	83,641	1347,876
1	0,000	83,641	1347,876
1	0,000	83,641	1347,876
1	0,000	83,641	1347,977
1	0,000	83,641	1348,077
1	0,000	83,691	1348,077
1	0,000	83,691	1348,178
1	0,000	83,691	1348,178
1	0,000	83,691	1348,178
1	0,000	83,691	1348,380
1	0,000	83,742	1348,380
1	0,000	83,742	1348,480
1	0,000	83,742	1348,581
1	0,000	83,742	1348,682
1	0,000	83,742	1348,581
1	0,000	83,792	1348,682
1	0,000	83,792	1348,782
1	0,000	83,792	1348,782
1	0,000	83,792	1348,984
1	0,000	83,792	1348,782
1	0,000	83,843	1348,782
1	0,000	83,843	1348,984
1	0,000	83,843	1348,984
1	0,000	83,843	1349,084
1	0,000	83,843	1349,084
1	0,000	83,893	1348,883
1	0,000	83,893	1349,185
1	0,000	83,893	1349,286
1	0,000	83,893	1349,286
1	0,000	83,893	1349,387
1	0,000	83,943	1349,588
1	0,000	83,943	1349,588
1	0,000	83,943	1349,387
1	0,000	83,943	1349,689
1	0,000	83,943	1349,689
1	0,000	83,993	1349,588
1	0,000	83,993	1349,789
1	0,000	83,993	1349,286
1	0,000	83,993	1349,890
1	0,000	83,993	1349,890
1	0,000	84,043	1350,092
1	0,000	84,043	1349,991
1	0,000	84,043	1350,092
1	0,000	84,043	1350,192
1	0,000	84,043	1350,293
1	0,000	84,093	1350,293
1	0,000	84,093	1350,394
1	0,000	84,093	1350,494
1	0,000	84,093	1350,494
1	0,000	84,093	1350,494
1	0,000	84,143	1350,595
1	0,000	84,143	1350,595
1	0,000	84,143	1350,696
1	0,000	84,143	1350,696
1	0,000	84,143	1350,797
1	0,000	84,193	1350,797
1	0,000	84,193	1350,897
1	0,000	84,193	1350,897
1	0,000	84,193	1351,099
1	0,000	84,193	1350,897
1	0,000	84,243	1350,998
1	0,000	84,243	1351,099
1	0,000	84,243	1351,300
1	0,000	84,243	1351,401
1	0,000	84,243	1351,401
1	0,000	84,293	1351,501
1	0,000	84,293	1351,602
1	0,000	84,293	1350,897
1	0,000	84,293	1351,703
1	0,000	84,293	1351,602
1	0,000	84,293	1351,703
1	0,000	84,343	1351,703
1	0,000	84,343	1351,804
1	0,000	84,343	1351,904
1	0,000	84,343	1351,904
1	0,000	84,393	1351,904
1	0,000	84,393	1352,005
1	0,000	84,393	1352,005
1	0,000	84,393	1352,206
1	0,000	84,393	1352,307
1	0,000	84,443	1352,206
1	0,000	84,443	1352,206
1	0,000	84,443	1352,307
1	0,000	84,443	1352,408
1	0,000	84,443	1352,408
1	0,000	84,493	1352,509
1	0,000	84,493	1352,509
1	0,000	84,493	1352,609
1	0,000	84,493	1352,609
1	0,000	84,493	1352,710
1	0,000	84,543	1352,811
1	0,000	84,543	1352,811
1	0,000	84,543	1352,911
1	0,000	84,543	1353,012
1	0,000	84,543	1353,012
1	0,000	84,593	1353,113
1	0,000	84,593	1353,113
1	0,000	84,593	1353,214
1	0,000	84,593	1353,214
1	0,000	84,593	1353,214
1	0,000	84,643	1353,415
1	0,000	84,643	1353,415
1	0,000	84,643	1353,616
1	0,000	84,643	1353,415
1	0,000	84,643	1353,818
1	0,000	84,643	1353,717
1	0,000	84,694	1353,717
1	0,000	84,694	1353,717
1	0,000	84,694	1353,717
1	0,000	84,694	1353,918
1	0,000	84,743	1353,818
1	0,000	84,743	1353,818
1	0,000	84,743	1354,019
1	0,000	84,743	1354,019
1	0,000	84,743	1354,120
1	0,000	84,743	1354,221
1	0,000	84,793	1354,221
1	0,000	84,793	1354,321
1	0,000	84,793	1354,321
1	0,000	84,793	1354,422
1	0,000	84,793	1354,422
1	0,000	84,844	1354,523
1	0,000	84,844	1354,623
1	0,000	84,844	1354,724
1	0,000	84,844	1354,724
1	0,000	84,894	1354,623
1	0,000	84,894	1354,926
1	0,000	84,894	1354,724
1	0,000	84,894	1354,926
1	0,000	84,894	1355,026
1	0,000	84,894	1355,026
1	0,000	84,943	1355,026
1	0,000	84,943	1355,228
1	0,000	84,943	1355,328
1	0,000	84,943	1355,228
1	0,000	84,993	1354,926
1	0,000	84,993	1355,530
1	0,000	84,993	1355,630
1	0,000	84,993	1355,530
1	0,000	84,993	1355,530
1	0,000	84,993	1355,630
1	0,000	85,044	1355,731
1	0,000	85,044	1355,832
1	0,000	85,044	1355,832
1	0,000	85,044	1355,832
1	0,000	85,044	1355,933
1	0,000	85,094	1356,033
1	0,000	85,094	1356,134
1	0,000	85,094	1356,033
1	0,000	85,094	1356,235
1	0,000	85,094	1356,235
1	0,000	85,144	1356,335
1	0,000	85,144	1356,335
1	0,000	85,144	1356,033
1	0,000	85,144	1356,537
1	0,000	85,144	1356,436
1	0,000	85,194	1356,638
1	0,000	85,194	1356,638
1	0,000	85,194	1356,638
1	0,000	85,194	1356,738
1	0,000	85,194	1356,839
1	0,000	85,244	1356,940
1	0,000	85,244	1356,940
1	0,000	85,244	1357,040
1	0,000	85,244	1357,141
1	0,000	85,294	1357,040
1	0,000	85,294	1357,242
1	0,000	85,294	1357,242
1	0,000	85,294	1357,343
1	0,000	85,294	1357,443
1	0,000	85,294	1357,443
1	0,000	85,344	1357,544
1	0,000	85,344	1357,443
1	0,000	85,344	1357,544
1	0,000	85,344	1357,544
1	0,000	85,344	1357,645
1	0,000	85,394	1357,846
1	0,000	85,394	1357,745
1	0,000	85,394	1357,947
1	0,000	85,394	1357,947
1	0,000	85,394	1358,047
1	0,000	85,444	1358,047
1	0,000	85,444	1358,148
1	0,000	85,444	1358,148
1	0,000	85,444	1358,249
1	0,000	85,444	1358,450
1	0,000	85,494	1358,350
1	0,000	85,494	1358,450
1	0,000	85,494	1358,551
1	0,000	85,494	1358,652
1	0,000	85,494	1358,652
1	0,000	85,544	1358,652
1	0,000	85,544	1358,752
1	0,000	85,544	1358,853
1	0,000	85,544	1358,954
1	0,000	85,544	1358,752
1	0,000	85,594	1359,055
1	0,000	85,594	1359,055
1	0,000	85,594	1359,155
1	0,000	85,594	1359,155
1	0,000	85,594	1359,256
1	0,000	85,644	1359,457
1	0,000	85,644	1359,357
1	0,000	85,644	1359,357
1	0,000	85,644	1359,457
1	0,000	85,644	1359,457
1	0,000	85,695	1359,558
1	0,000	85,695	1359,558
1	0,000	85,695	1359,558
1	0,000	85,695	1359,659
1	0,000	85,695	1359,760
1	0,000	85,745	1360,062
1	0,000	85,745	1359,961
1	0,000	85,745	1359,961
1	0,000	85,745	1360,062
1	0,000	85,745	1360,162
1	0,000	85,795	1360,263
1	0,000	85,795	1360,162
1	0,000	85,795	1360,364
1	0,000	85,795	1360,364
1	0,000	85,795	1360,464
1	0,000	85,845	1360,464
1	0,000	85,845	1360,565
1	0,000	85,845	1360,565
1	0,000	85,845	1360,666
1	0,000	85,845	1360,666
1	0,000	85,895	1360,767
1	0,000	85,895	1360,867
1	0,000	85,895	1360,867
1	0,000	85,895	1361,069
1	0,000	85,895	1361,069
1	0,000	85,945	1361,069
1	0,000	85,945	1361,169
1	0,000	85,945	1361,169
1	0,000	85,945	1361,371
1	0,000	85,945	1361,371
1	0,000	85,995	1361,371
1	0,000	85,995	1361,572
1	0,000	85,995	1361,673
1	0,000	85,995	1361,673
1	0,000	85,995	1361,673
1	0,000	86,045	1361,774
1	0,000	86,045	1361,774
1	0,000	86,045	1361,774
1	0,000	86,045	1361,874
1	0,000	86,045	1361,975
1	0,000	86,095	1362,076
1	0,000	86,095	1362,076
1	0,000	86,095	1362,177
1	0,000	86,095	1362,177
1	0,000	86,095	1362,378
1	0,000	86,145	1362,277
1	0,000	86,145	1362,378
1	0,000	86,145	1362,579
1	0,000	86,145	1362,479
1	0,000	86,145	1362,781
1	0,000	86,195	1362,781
1	0,000	86,195	1362,680
1	0,000	86,195	1362,680
1	0,000	86,195	1362,680
1	0,000	86,195	1362,881
1	0,000	86,245	1362,982
1	0,000	86,245	1362,982
1	0,000	86,245	1362,982
1	0,000	86,245	1363,184
1	0,000	86,245	1363,184
1	0,000	86,295	1363,284
1	0,000	86,295	1363,284
1	0,000	86,295	1363,385
1	0,000	86,295	1363,385
1	0,000	86,295	1363,486
1	0,000	86,345	1363,486
1	0,000	86,345	1363,586
1	0,000	86,345	1363,385
1	0,000	86,345	1363,889
1	0,000	86,345	1363,889
1	0,000	86,395	1363,889
1	0,000	86,395	1363,989
1	0,000	86,395	1364,090
1	0,000	86,395	1364,090
1	0,000	86,395	1364,191
1	0,000	86,445	1364,291
1	0,000	86,445	1364,291
1	0,000	86,445	1364,392
1	0,000	86,445	1364,392
1	0,000	86,495	1364,493
1	0,000	86,495	1364,493
1	0,000	86,495	1364,594
1	0,000	86,495	1364,594
1	0,000	86,495	1364,694
1	0,000	86,495	1364,694
1	0,000	86,546	1364,795
1	0,000	86,546	1364,795
1	0,000	86,546	1364,896
1	0,000	86,546	1364,996
1	0,000	86,546	1365,097
1	0,000	86,595	1365,097
1	0,000	86,595	1365,198
1	0,000	86,595	1365,298
1	0,000	86,595	1365,399
1	0,000	86,595	1364,594
1	0,000	86,645	1364,694
1	0,000	86,645	1365,097
1	0,000	86,645	1364,996
1	0,000	86,645	1365,500
1	0,000	86,645	1365,903
1	0,000	86,696	1365,802
1	0,000	86,696	1365,903
1	0,000	86,696	1365,903
1	0,000	86,696	1365,903
1	0,000	86,696	1366,104
1	0,000	86,746	1366,104
1	0,000	86,746	1366,205
1	0,000	86,746	1366,104
1	0,000	86,746	1366,205
1	0,000	86,746	1366,306
1	0,000	86,796	1366,406
1	0,000	86,796	1366,406
1	0,000	86,796	1366,507
1	0,000	86,796	1366,608
1	0,000	86,796	1366,708
1	0,000	86,846	1366,708
1	0,000	86,846	1366,809
1	0,000	86,846	1366,809
1	0,000	86,846	1366,910
1	0,000	86,846	1367,010
1	0,000	86,896	1367,010
1	0,000	86,896	1367,111
1	0,000	86,896	1367,111
1	0,000	86,896	1367,212
1	0,000	86,896	1367,313
1	0,000	86,946	1367,313
1	0,000	86,946	1367,413
1	0,000	86,946	1367,413
1	0,000	86,946	1367,514
1	0,000	86,946	1367,615
1	0,000	86,996	1367,615
1	0,000	86,996	1367,715
1	0,000	86,996	1367,816
1	0,000	86,996	1367,816
1	0,000	86,996	1368,118
1	0,000	87,046	1368,018
1	0,000	87,046	1368,118
1	0,000	87,046	1368,118
1	0,000	87,046	1368,219
1	0,000	87,046	1368,320
1	0,000	87,096	1368,320
1	0,000	87,096	1368,420
1	0,000	87,096	1368,521
1	0,000	87,096	1368,521
1	0,000	87,096	1368,622
1	0,000	87,146	1368,622
1	0,000	87,146	1368,723
1	0,000	87,146	1368,723
1	0,000	87,146	1368,823
1	0,000	87,146	1368,521
1	0,000	87,196	1369,025
1	0,000	87,196	1369,125
1	0,000	87,196	1369,125
1	0,000	87,196	1369,226
1	0,000	87,196	1369,327
1	0,000	87,247	1369,427
1	0,000	87,247	1369,427
1	0,000	87,247	1369,427
1	0,000	87,247	1369,629
1	0,000	87,247	1369,629
1	0,000	87,296	1369,730
1	0,000	87,296	1369,730
1	0,000	87,296	1369,830
1	0,000	87,296	1369,730
1	0,000	87,296	1369,931
1	0,000	87,347	1370,032
1	0,000	87,347	1370,032
1	0,000	87,347	1370,032
1	0,000	87,347	1370,132
1	0,000	87,347	1370,233
1	0,000	87,397	1370,233
1	0,000	87,397	1370,435
1	0,000	87,397	1370,435
1	0,000	87,397	1370,535
1	0,000	87,397	1370,535
1	0,000	87,448	1370,636
1	0,000	87,448	1370,535
1	0,000	87,448	1370,737
1	0,000	87,448	1370,837
1	0,000	87,448	1370,938
1	0,000	87,498	1370,938
1	0,000	87,498	1370,938
1	0,000	87,498	1371,140
1	0,000	87,498	1371,240
1	0,000	87,498	1371,341
1	0,000	87,549	1371,039
1	0,000	87,549	1371,442
1	0,000	87,549	1371,442
1	0,000	87,549	1371,442
1	0,000	87,549	1371,542
1	0,000	87,599	1371,542
1	0,000	87,599	1371,643
1	0,000	87,599	1371,744
1	0,000	87,599	1371,744
1	0,000	87,599	1371,844
1	0,000	87,649	1371,945
1	0,000	87,649	1372,046
1	0,000	87,649	1372,147
1	0,000	87,649	1372,247
1	0,000	87,649	1372,348
1	0,000	87,699	1372,247
1	0,000	87,699	1372,348
1	0,000	87,699	1372,549
1	0,000	87,699	1372,449
1	0,000	87,699	1372,650
1	0,000	87,750	1372,650
1	0,000	87,750	1372,650
1	0,000	87,750	1372,852
1	0,000	87,750	1372,852
1	0,000	87,750	1373,053
1	0,000	87,799	1373,053
1	0,000	87,799	1372,952
1	0,000	87,799	1373,053
1	0,000	87,799	1373,355
1	0,000	87,799	1373,254
1	0,000	87,849	1373,254
1	0,000	87,849	1373,456
1	0,000	87,849	1373,557
1	0,000	87,849	1373,557
1	0,000	87,849	1373,557
1	0,000	87,900	1373,758
1	0,000	87,900	1373,758
1	0,000	87,900	1373,758
1	0,000	87,900	1373,859
1	0,000	87,900	1373,959
1	0,000	87,949	1373,959
1	0,000	87,949	1374,060
1	0,000	87,949	1373,959
1	0,000	87,949	1374,060
1	0,000	87,949	1374,060
1	0,000	87,999	1374,261
1	0,000	87,999	1374,362
1	0,000	87,999	1374,463
1	0,000	87,999	1374,564
1	0,000	87,999	1374,564
1	0,000	88,050	1374,664
1	0,000	88,050	1374,765
1	0,000	88,050	1374,765
1	0,000	88,050	1374,866
1	0,000	88,050	1374,966
1	0,000	88,100	1375,067
1	0,000	88,100	1375,067
1	0,000	88,100	1375,168
1	0,000	88,100	1375,168
1	0,000	88,100	1375,269
1	0,000	88,149	1375,369
1	0,000	88,149	1375,470
1	0,000	88,149	1375,470
1	0,000	88,149	1375,571
1	0,000	88,149	1375,571
1	0,000	88,200	1375,772
1	0,000	88,200	1375,772
1	0,000	88,200	1375,873
1	0,000	88,200	1375,873
1	0,000	88,200	1375,974
1	0,000	88,250	1375,974
1	0,000	88,250	1376,175
1	0,000	88,250	1376,276
1	0,000	88,250	1376,376
1	0,000	88,250	1376,477
1	0,000	88,300	1376,477
1	0,000	88,300	1376,477
1	0,000	88,300	1376,578
1	0,000	88,300	1376,578
1	0,000	88,300	1376,678
1	0,000	88,350	1376,779
1	0,000	88,350	1376,880
1	0,000	88,350	1377,081
1	0,000	88,350	1376,880
1	0,000	88,350	1377,182
1	0,000	88,399	1377,182
1	0,000	88,399	1377,081
1	0,000	88,399	1377,383
1	0,000	88,399	1377,383
1	0,000	88,399	1377,383
1	0,000	88,449	1377,484
1	0,000	88,449	1377,585
1	0,000	88,449	1377,484
1	0,000	88,449	1377,786
1	0,000	88,449	1377,887
1	0,000	88,500	1377,887
1	0,000	88,500	1377,887
1	0,000	88,500	1378,088
1	0,000	88,500	1378,088
1	0,000	88,500	1378,189
1	0,000	88,550	1378,189
1	0,000	88,550	1378,189
1	0,000	88,550	1378,391
1	0,000	88,550	1378,491
1	0,000	88,550	1378,592
1	0,000	88,600	1378,592
1	0,000	88,600	1378,592
1	0,000	88,600	1378,793
1	0,000	88,600	1378,693
1	0,000	88,600	1378,894
1	0,000	88,650	1378,894
1	0,000	88,650	1378,995
1	0,000	88,650	1378,995
1	0,000	88,650	1379,095
1	0,000	88,650	1379,095
1	0,000	88,699	1379,196
1	0,000	88,699	1379,297
1	0,000	88,699	1379,398
1	0,000	88,699	1379,498
1	0,000	88,699	1379,498
1	0,000	88,750	1379,700
1	0,000	88,750	1379,700
1	0,000	88,750	1379,700
1	0,000	88,750	1379,800
1	0,000	88,750	1379,800
1	0,000	88,800	1379,901
1	0,000	88,800	1380,002
1	0,000	88,800	1380,203
1	0,000	88,800	1380,103
1	0,000	88,800	1380,203
1	0,000	88,849	1380,203
1	0,000	88,849	1380,304
1	0,000	88,849	1380,405
1	0,000	88,849	1380,405
1	0,000	88,849	1380,505
1	0,000	88,899	1380,606
1	0,000	88,899	1380,606
1	0,000	88,899	1380,807
1	0,000	88,899	1380,908
1	0,000	88,899	1380,908
1	0,000	88,949	1381,009
1	0,000	88,949	1381,009
1	0,000	88,949	1381,210
1	0,000	88,949	1381,210
1	0,000	88,949	1381,311
1	0,000	88,999	1381,412
1	0,000	88,999	1381,512
1	0,000	88,999	1381,512
1	0,000	88,999	1381,613
1	0,000	88,999	1381,714
1	0,000	89,049	1381,714
1	0,000	89,049	1381,915
1	0,000	89,049	1382,016
1	0,000	89,049	1382,016
1	0,000	89,049	1382,016
1	0,000	89,100	1382,117
1	0,000	89,100	1382,217
1	0,000	89,100	1382,217
1	0,000	89,100	1382,318
1	0,000	89,100	1382,419
1	0,000	89,149	1382,520
1	0,000	89,149	1382,520
1	0,000	89,149	1382,620
1	0,000	89,149	1382,721
1	0,000	89,149	1382,721
1	0,000	89,200	1382,822
1	0,000	89,200	1382,922
1	0,000	89,200	1383,124
1	0,000	89,200	1383,124
1	0,000	89,200	1383,124
1	0,000	89,250	1383,124
1	0,000	89,250	1383,325
1	0,000	89,250	1383,426
1	0,000	89,250	1383,527
1	0,000	89,250	1383,527
1	0,000	89,300	1383,627
1	0,000	89,300	1383,728
1	0,000	89,300	1383,728
1	0,000	89,300	1383,829
1	0,000	89,300	1383,929
1	0,000	89,350	1383,929
1	0,000	89,350	1384,030
1	0,000	89,350	1384,030
1	0,000	89,350	1384,232
1	0,000	89,350	1384,232
1	0,000	89,400	1384,433
1	0,000	89,400	1384,634
1	0,000	89,400	1384,433
1	0,000	89,400	1384,534
1	0,000	89,400	1384,131
1	0,000	89,450	1384,735
1	0,000	89,450	1384,836
1	0,000	89,450	1384,937
1	0,000	89,450	1384,937
1	0,000	89,450	1384,937
1	0,000	89,500	1385,037
1	0,000	89,500	1385,138
1	0,000	89,500	1385,339
1	0,000	89,500	1385,440
1	0,000	89,500	1385,339
1	0,000	89,550	1385,440
1	0,000	89,550	1385,541
1	0,000	89,550	1385,541
1	0,000	89,550	1385,641
1	0,000	89,550	1385,641
1	0,000	89,600	1385,742
1	0,000	89,600	1385,944
1	0,000	89,600	1385,944
1	0,000	89,600	1385,944
1	0,000	89,600	1386,145
1	0,000	89,650	1386,145
1	0,000	89,650	1386,246
1	0,000	89,650	1386,346
1	0,000	89,650	1386,246
1	0,000	89,650	1386,346
1	0,000	89,700	1386,548
1	0,000	89,700	1386,649
1	0,000	89,700	1386,649
1	0,000	89,700	1386,951
1	0,000	89,700	1386,951
1	0,000	89,749	1386,951
1	0,000	89,749	1386,951
1	0,000	89,749	1387,051
1	0,000	89,749	1387,152
1	0,000	89,749	1387,354
1	0,000	89,800	1387,354
1	0,000	89,800	1387,354
1	0,000	89,800	1387,354
1	0,000	89,800	1387,555
1	0,000	89,800	1387,656
1	0,000	89,850	1387,756
1	0,000	89,850	1387,656
1	0,000	89,850	1387,958
1	0,000	89,850	1387,857
1	0,000	89,850	1388,058
1	0,000	89,901	1388,260
1	0,000	89,901	1388,260
1	0,000	89,901	1388,260
1	0,000	89,901	1388,260
1	0,000	89,901	1388,461
1	0,000	89,951	1388,461
1	0,000	89,951	1388,461
1	0,000	89,951	1388,562
1	0,000	89,951	1388,361
1	0,000	89,951	1388,864
1	0,000	90,001	1388,864
1	0,000	90,001	1388,965
1	0,000	90,001	1388,965
1	0,000	90,001	1389,066
1	0,000	90,001	1389,166
1	0,000	90,050	1389,267
1	0,000	90,050	1389,267
1	0,000	90,050	1389,368
1	0,000	90,050	1389,468
1	0,000	90,050	1389,569
1	0,000	90,101	1389,468
1	0,000	90,101	1389,771
1	0,000	90,101	1389,771
1	0,000	90,101	1389,871
1	0,000	90,101	1389,871
1	0,000	90,151	1389,972
1	0,000	90,151	1390,173
1	0,000	90,151	1390,173
1	0,000	90,151	1390,274
1	0,000	90,151	1390,274
1	0,000	90,151	1390,375
1	0,000	90,201	1390,475
1	0,000	90,201	1390,576
1	0,000	90,201	1390,576
1	0,000	90,201	1390,677
1	0,000	90,201	1390,778
1	0,000	90,251	1390,778
1	0,000	90,251	1390,979
1	0,000	90,251	1390,979
1	0,000	90,251	1391,080
1	0,000	90,251	1391,080
1	0,000	90,301	1391,180
1	0,000	90,301	1391,382
1	0,000	90,301	1391,281
1	0,000	90,301	1391,281
1	0,000	90,301	1391,583
1	0,000	90,352	1391,483
1	0,000	90,352	1391,684
1	0,000	90,352	1391,785
1	0,000	90,352	1391,885
1	0,000	90,352	1391,885
1	0,000	90,401	1391,986
1	0,000	90,401	1392,087
1	0,000	90,401	1392,087
1	0,000	90,401	1392,288
1	0,000	90,401	1392,288
1	0,000	90,452	1392,389
1	0,000	90,452	1392,490
1	0,000	90,452	1392,490
1	0,000	90,452	1392,590
1	0,000	90,452	1392,691
1	0,000	90,502	1392,691
1	0,000	90,502	1392,792
1	0,000	90,502	1392,892
1	0,000	90,502	1392,993
1	0,000	90,502	1393,094
1	0,000	90,552	1393,195
1	0,000	90,552	1393,195
1	0,000	90,552	1393,295
1	0,000	90,552	1393,396
1	0,000	90,552	1393,396
1	0,000	90,603	1393,497
1	0,000	90,603	1393,597
1	0,000	90,603	1393,698
1	0,000	90,603	1393,799
1	0,000	90,603	1393,799
1	0,000	90,653	1393,900
1	0,000	90,653	1394,000
1	0,000	90,653	1394,000
1	0,000	90,653	1394,101
1	0,000	90,653	1394,202
1	0,000	90,703	1394,302
1	0,000	90,703	1394,403
1	0,000	90,703	1394,403
1	0,000	90,703	1394,504
1	0,000	90,703	1394,504
1	0,000	90,753	1394,705
1	0,000	90,753	1394,806
1	0,000	90,753	1394,806
1	0,000	90,753	1394,907
1	0,000	90,753	1395,007
1	0,000	90,803	1395,007
1	0,000	90,803	1395,108
1	0,000	90,803	1395,108
1	0,000	90,803	1395,309
1	0,000	90,854	1395,309
1	0,000	90,854	1395,511
1	0,000	90,854	1395,511
1	0,000	90,854	1395,511
1	0,000	90,854	1395,712
1	0,000	90,854	1395,612
1	0,000	90,904	1395,813
1	0,000	90,904	1395,914
1	0,000	90,904	1395,914
1	0,000	90,904	1396,014
1	0,000	90,904	1396,115
1	0,000	90,954	1396,216
1	0,000	90,954	1396,216
1	0,000	90,954	1396,417
1	0,000	90,954	1396,417
1	0,000	90,954	1396,417
1	0,000	91,004	1396,619
1	0,000	91,004	1396,619
1	0,000	91,004	1396,820
1	0,000	91,004	1396,820
1	0,000	91,004	1396,921
1	0,000	91,054	1397,021
1	0,000	91,054	1397,122
1	0,000	91,054	1397,223
1	0,000	91,054	1397,324
1	0,000	91,054	1397,525
1	0,000	91,104	1397,525
1	0,000	91,104	1397,525
1	0,000	91,104	1397,626
1	0,000	91,104	1397,726
1	0,000	91,104	1397,726
1	0,000	91,154	1397,726
1	0,000	91,154	1397,928
1	0,000	91,154	1398,029
1	0,000	91,154	1398,029
1	0,000	91,154	1398,129
1	0,000	91,204	1398,230
1	0,000	91,204	1398,331
1	0,000	91,204	1398,431
1	0,000	91,204	1398,532
1	0,000	91,204	1398,532
1	0,000	91,254	1398,331
1	0,000	91,254	1398,734
1	0,000	91,254	1398,734
1	0,000	91,254	1398,633
1	0,000	91,254	1399,036
1	0,000	91,304	1399,036
1	0,000	91,304	1399,136
1	0,000	91,304	1399,136
1	0,000	91,304	1399,338
1	0,000	91,304	1399,338
1	0,000	91,354	1399,438
1	0,000	91,354	1399,539
1	0,000	91,354	1399,640
1	0,000	91,354	1399,640
1	0,000	91,354	1399,741
1	0,000	91,404	1399,741
1	0,000	91,404	1399,942
1	0,000	91,404	1399,942
1	0,000	91,404	1400,043
1	0,000	91,404	1400,143
1	0,000	91,454	1400,244
1	0,000	91,454	1400,345
1	0,000	91,454	1400,446
1	0,000	91,454	1400,446
1	0,000	91,454	1400,546
1	0,000	91,504	1400,647
1	0,000	91,504	1400,748
1	0,000	91,504	1400,848
1	0,000	91,504	1400,848
1	0,000	91,504	1400,949
1	0,000	91,554	1401,050
1	0,000	91,554	1401,251
1	0,000	91,554	1401,251
1	0,000	91,554	1401,352
1	0,000	91,554	1401,352
1	0,000	91,605	1401,453
1	0,000	91,605	1401,553
1	0,000	91,605	1401,553
1	0,000	91,605	1401,251
1	0,000	91,655	1401,855
1	0,000	91,655	1401,855
1	0,000	91,655	1401,855
1	0,000	91,655	1402,158
1	0,000	91,655	1402,258
1	0,000	91,655	1402,158
1	0,000	91,705	1402,258
1	0,000	91,705	1402,359
1	0,000	91,705	1402,359
1	0,000	91,705	1402,560
1	0,000	91,705	1402,560
1	0,000	91,755	1402,661
1	0,000	91,755	1402,762
1	0,000	91,755	1402,863
1	0,000	91,755	1402,863
1	0,000	91,755	1402,963
1	0,000	91,805	1403,064
1	0,000	91,805	1403,165
1	0,000	91,805	1403,165
1	0,000	91,805	1403,265
1	0,000	91,805	1403,467
1	0,000	91,855	1403,467
1	0,000	91,855	1403,467
1	0,000	91,855	1403,668
1	0,000	91,855	1403,668
1	0,000	91,855	1403,769
1	0,000	91,906	1403,870
1	0,000	91,906	1403,870
1	0,000	91,906	1403,970
1	0,000	91,906	1404,071
1	0,000	91,906	1404,172
1	0,000	91,956	1404,172
1	0,000	91,956	1404,373
1	0,000	91,956	1404,172
1	0,000	91,956	1404,675
1	0,000	91,956	1404,071
1	0,000	92,006	1404,776
1	0,000	92,006	1404,675
1	0,000	92,006	1404,977
1	0,000	92,006	1405,078
1	0,000	92,006	1404,977
1	0,000	92,056	1404,977
1	0,000	92,056	1405,179
1	0,000	92,056	1404,675
1	0,000	92,056	1405,380
1	0,000	92,056	1405,481
1	0,000	92,107	1405,481
1	0,000	92,107	1405,682
1	0,000	92,107	1405,682
1	0,000	92,107	1405,783
1	0,000	92,107	1405,884
1	0,000	92,157	1405,884
1	0,000	92,157	1405,984
1	0,000	92,157	1406,085
1	0,000	92,157	1406,085
1	0,000	92,157	1406,287
1	0,000	92,207	1406,186
1	0,000	92,207	1406,488
1	0,000	92,207	1406,488
1	0,000	92,207	1406,387
1	0,000	92,207	1406,589
1	0,000	92,257	1406,790
1	0,000	92,257	1406,891
1	0,000	92,257	1406,891
1	0,000	92,257	1407,092
1	0,000	92,257	1406,992
1	0,000	92,307	1407,193
1	0,000	92,307	1407,193
1	0,000	92,307	1407,294
1	0,000	92,307	1407,294
1	0,000	92,307	1407,394
1	0,000	92,357	1407,596
1	0,000	92,357	1407,596
1	0,000	92,357	1407,697
1	0,000	92,357	1407,797
1	0,000	92,357	1407,898
1	0,000	92,407	1407,898
1	0,000	92,407	1407,999
1	0,000	92,407	1408,200
1	0,000	92,407	1407,999
1	0,000	92,407	1408,301
1	0,000	92,457	1408,401
1	0,000	92,457	1408,401
1	0,000	92,457	1408,603
1	0,000	92,457	1408,502
1	0,000	92,457	1408,603
1	0,000	92,507	1408,704
1	0,000	92,507	1408,804
1	0,000	92,507	1409,006
1	0,000	92,507	1409,006
1	0,000	92,507	1409,106
1	0,000	92,557	1409,106
1	0,000	92,557	1409,207
1	0,000	92,557	1409,409
1	0,000	92,557	1409,207
1	0,000	92,557	1409,610
1	0,000	92,607	1409,711
1	0,000	92,607	1409,811
1	0,000	92,607	1409,811
1	0,000	92,607	1409,811
1	0,000	92,607	1410,013
1	0,000	92,657	1410,114
1	0,000	92,657	1410,214
1	0,000	92,657	1410,214
1	0,000	92,657	1410,315
1	0,000	92,657	1410,214
1	0,000	92,707	1410,718
1	0,000	92,707	1410,617
1	0,000	92,707	1410,617
1	0,000	92,707	1410,718
1	0,000	92,707	1411,020
1	0,000	92,757	1410,818
1	0,000	92,757	1411,020
1	0,000	92,757	1411,020
1	0,000	92,757	1411,322
1	0,000	92,757	1411,322
1	0,000	92,807	1411,221
1	0,000	92,807	1411,322
1	0,000	92,807	1411,523
1	0,000	92,807	1411,624
1	0,000	92,807	1411,624
1	0,000	92,857	1411,725
1	0,000	92,857	1411,826
1	0,000	92,857	1411,926
1	0,000	92,857	1412,027
1	0,000	92,857	1412,128
1	0,000	92,907	1412,128
1	0,000	92,907	1412,329
1	0,000	92,907	1412,329
1	0,000	92,907	1412,430
1	0,000	92,907	1412,631
1	0,000	92,957	1412,430
1	0,000	92,957	1412,732
1	0,000	92,957	1412,732
1	0,000	92,957	1412,833
1	0,000	92,957	1413,034
1	0,000	93,008	1413,034
1	0,000	93,008	1413,135
1	0,000	93,008	1413,135
1	0,000	93,008	1413,235
1	0,000	93,008	1413,336
1	0,000	93,057	1413,437
1	0,000	93,057	1413,538
1	0,000	93,057	1413,638
1	0,000	93,057	1413,638
1	0,000	93,057	1413,840
1	0,000	93,108	1413,840
1	0,000	93,108	1413,940
1	0,000	93,108	1414,041
1	0,000	93,108	1414,142
1	0,000	93,108	1414,343
1	0,000	93,157	1414,343
1	0,000	93,157	1414,444
1	0,000	93,157	1414,545
1	0,000	93,157	1414,645
1	0,000	93,157	1414,645
1	0,000	93,207	1414,746
1	0,000	93,207	1414,847
1	0,000	93,207	1414,847
1	0,000	93,207	1415,048
1	0,000	93,207	1415,149
1	0,000	93,258	1415,250
1	0,000	93,258	1415,350
1	0,000	93,258	1415,048
1	0,000	93,258	1415,451
1	0,000	93,258	1415,451
1	0,000	93,308	1415,652
1	0,000	93,308	1415,753
1	0,000	93,308	1415,854
1	0,000	93,308	1415,854
1	0,000	93,308	1415,955
1	0,000	93,358	1416,055
1	0,000	93,358	1416,156
1	0,000	93,358	1416,257
1	0,000	93,358	1416,257
1	0,000	93,358	1416,458
1	0,000	93,408	1416,559
1	0,000	93,408	1416,559
1	0,000	93,408	1416,760
1	0,000	93,408	1416,660
1	0,000	93,408	1416,861
1	0,000	93,458	1416,861
1	0,000	93,458	1416,962
1	0,000	93,458	1417,062
1	0,000	93,458	1417,163
1	0,000	93,458	1417,264
1	0,000	93,508	1417,365
1	0,000	93,508	1417,465
1	0,000	93,508	1417,566
1	0,000	93,508	1417,667
1	0,000	93,508	1417,767
1	0,000	93,558	1417,767
1	0,000	93,558	1417,868
1	0,000	93,558	1417,868
1	0,000	93,558	1418,069
1	0,000	93,558	1418,170
1	0,000	93,609	1418,271
1	0,000	93,609	1418,372
1	0,000	93,609	1418,372
1	0,000	93,609	1418,573
1	0,000	93,609	1418,674
1	0,000	93,658	1418,774
1	0,000	93,658	1418,774
1	0,000	93,658	1418,875
1	0,000	93,658	1418,976
1	0,000	93,658	1418,976
1	0,000	93,708	1419,077
1	0,000	93,708	1419,278
1	0,000	93,708	1419,379
1	0,000	93,708	1419,379
1	0,000	93,708	1419,479
1	0,000	93,758	1419,580
1	0,000	93,758	1419,681
1	0,000	93,758	1419,681
1	0,000	93,758	1419,781
1	0,000	93,758	1419,882
1	0,000	93,809	1419,983
1	0,000	93,809	1420,285
1	0,000	93,809	1420,285
1	0,000	93,809	1420,285
1	0,000	93,809	1420,386
1	0,000	93,858	1420,486
1	0,000	93,858	1420,587
1	0,000	93,858	1420,688
1	0,000	93,858	1420,789
1	0,000	93,858	1420,889
1	0,000	93,908	1421,091
1	0,000	93,908	1420,990
1	0,000	93,908	1421,091
1	0,000	93,908	1420,990
1	0,000	93,908	1421,292
1	0,000	93,958	1421,292
1	0,000	93,958	1421,191
1	0,000	93,958	1421,695
1	0,000	93,958	1421,695
1	0,000	93,958	1421,695
1	0,000	94,008	1421,695
1	0,000	94,008	1421,896
1	0,000	94,008	1421,997
1	0,000	94,008	1422,098
1	0,000	94,008	1422,198
1	0,000	94,008	1422,299
1	0,000	94,059	1422,098
1	0,000	94,059	1422,501
1	0,000	94,059	1422,501
1	0,000	94,059	1422,601
1	0,000	94,109	1422,803
1	0,000	94,109	1422,702
1	0,000	94,109	1423,004
1	0,000	94,109	1422,903
1	0,000	94,109	1422,803
1	0,000	94,109	1423,105
1	0,000	94,159	1423,206
1	0,000	94,159	1423,306
1	0,000	94,159	1423,407
1	0,000	94,159	1423,508
1	0,000	94,209	1423,508
1	0,000	94,209	1423,709
1	0,000	94,209	1423,810
1	0,000	94,209	1423,911
1	0,000	94,209	1424,011
1	0,000	94,259	1424,011
1	0,000	94,259	1424,112
1	0,000	94,259	1424,313
1	0,000	94,259	1424,313
1	0,000	94,259	1424,515
1	0,000	94,259	1424,615
1	0,000	94,309	1424,716
1	0,000	94,309	1424,716
1	0,000	94,309	1424,918
1	0,000	94,309	1424,918
1	0,000	94,359	1424,817
1	0,000	94,359	1425,119
1	0,000	94,359	1425,220
1	0,000	94,359	1425,320
1	0,000	94,359	1425,220
1	0,000	94,359	1425,522
1	0,000	94,409	1425,623
1	0,000	94,409	1425,723
1	0,000	94,409	1425,824
1	0,000	94,409	1425,824
1	0,000	94,459	1425,824
1	0,000	94,459	1426,025
1	0,000	94,459	1426,126
1	0,000	94,459	1426,126
1	0,000	94,459	1426,227
1	0,000	94,459	1426,328
1	0,000	94,509	1426,529
1	0,000	94,509	1426,529
1	0,000	94,509	1426,630
1	0,000	94,509	1426,630
1	0,000	94,509	1426,932
1	0,000	94,559	1426,932
1	0,000	94,559	1427,032
1	0,000	94,559	1427,133
1	0,000	94,559	1427,234
1	0,000	94,609	1427,335
1	0,000	94,609	1427,435
1	0,000	94,609	1427,435
1	0,000	94,609	1427,536
1	0,000	94,609	1427,737
1	0,000	94,609	1427,838
1	0,000	94,659	1427,838
1	0,000	94,659	1427,939
1	0,000	94,659	1428,040
1	0,000	94,659	1428,140
1	0,000	94,659	1428,342
1	0,000	94,709	1428,342
1	0,000	94,709	1428,442
1	0,000	94,709	1428,442
1	0,000	94,709	1428,644
1	0,000	94,709	1428,644
1	0,000	94,759	1428,745
1	0,000	94,759	1428,845
1	0,000	94,759	1429,147
1	0,000	94,759	1429,349
1	0,000	94,759	1429,449
1	0,000	94,809	1429,349
1	0,000	94,809	1429,349
1	0,000	94,809	1429,449
1	0,000	94,809	1429,449
1	0,000	94,809	1429,651
1	0,000	94,859	1429,651
1	0,000	94,859	1429,752
1	0,000	94,859	1429,852
1	0,000	94,859	1430,054
1	0,000	94,909	1430,054
1	0,000	94,909	1430,255
1	0,000	94,909	1430,154
1	0,000	94,909	1430,356
1	0,000	94,909	1430,457
1	0,000	94,909	1430,457
1	0,000	94,959	1430,658
1	0,000	94,959	1430,759
1	0,000	94,959	1430,859
1	0,000	94,959	1430,859
1	0,000	94,959	1430,960
1	0,000	95,009	1431,061
1	0,000	95,009	1430,960
1	0,000	95,009	1431,363
1	0,000	95,009	1431,363
1	0,000	95,009	1431,464
1	0,000	95,059	1431,665
1	0,000	95,059	1431,766
1	0,000	95,059	1431,866
1	0,000	95,059	1432,068
1	0,000	95,059	1431,967
1	0,000	95,110	1432,169
1	0,000	95,110	1432,370
1	0,000	95,110	1432,269
1	0,000	95,110	1432,370
1	0,000	95,110	1432,471
1	0,000	95,159	1432,571
1	0,000	95,159	1432,672
1	0,000	95,159	1432,773
1	0,000	95,159	1432,773
1	0,000	95,159	1432,874
1	0,000	95,210	1432,974
1	0,000	95,210	1433,176
1	0,000	95,210	1432,874
1	0,000	95,210	1433,377
1	0,000	95,210	1433,377
1	0,000	95,260	1433,478
1	0,000	95,260	1433,679
1	0,000	95,260	1433,679
1	0,000	95,260	1433,679
1	0,000	95,260	1433,780
1	0,000	95,310	1433,981
1	0,000	95,310	1434,082
1	0,000	95,310	1434,082
1	0,000	95,310	1434,183
1	0,000	95,310	1434,384
1	0,000	95,360	1434,485
1	0,000	95,360	1434,586
1	0,000	95,360	1434,686
1	0,000	95,360	1434,686
1	0,000	95,360	1434,888
1	0,000	95,410	1434,988
1	0,000	95,410	1434,988
1	0,000	95,410	1435,089
1	0,000	95,410	1435,190
1	0,000	95,410	1435,291
1	0,000	95,460	1435,492
1	0,000	95,460	1435,593
1	0,000	95,460	1435,794
1	0,000	95,460	1435,693
1	0,000	95,460	1435,895
1	0,000	95,510	1435,895
1	0,000	95,510	1435,995
1	0,000	95,510	1436,096
1	0,000	95,510	1436,096
1	0,000	95,510	1436,197
1	0,000	95,560	1436,298
1	0,000	95,560	1436,398
1	0,000	95,560	1436,499
1	0,000	95,560	1436,600
1	0,000	95,560	1436,700
1	0,000	95,611	1436,801
1	0,000	95,611	1436,902
1	0,000	95,611	1436,499
1	0,000	95,611	1437,103
1	0,000	95,611	1437,204
1	0,000	95,661	1437,204
1	0,000	95,661	1437,305
1	0,000	95,661	1437,405
1	0,000	95,661	1437,204
1	0,000	95,661	1437,607
1	0,000	95,711	1437,708
1	0,000	95,711	1437,808
1	0,000	95,711	1438,010
1	0,000	95,711	1438,110
1	0,000	95,711	1438,110
1	0,000	95,762	1438,211
1	0,000	95,762	1438,312
1	0,000	95,762	1438,513
1	0,000	95,762	1438,513
1	0,000	95,762	1438,614
1	0,000	95,811	1438,715
1	0,000	95,811	1438,715
1	0,000	95,811	1438,916
1	0,000	95,811	1439,017
1	0,000	95,811	1439,117
1	0,000	95,862	1439,218
1	0,000	95,862	1439,319
1	0,000	95,862	1439,420
1	0,000	95,862	1439,319
1	0,000	95,862	1439,319
1	0,000	95,912	1439,621
1	0,000	95,912	1439,822
1	0,000	95,912	1439,822
1	0,000	95,912	1439,923
1	0,000	95,912	1440,125
1	0,000	95,962	1440,225
1	0,000	95,962	1440,225
1	0,000	95,962	1440,326
1	0,000	95,962	1440,427
1	0,000	95,962	1440,628
1	0,000	96,012	1440,527
1	0,000	96,012	1440,527
1	0,000	96,012	1440,829
1	0,000	96,012	1440,628
1	0,000	96,012	1441,031
1	0,000	96,063	1441,132
1	0,000	96,063	1441,232
1	0,000	96,063	1441,434
1	0,000	96,063	1441,534
1	0,000	96,063	1441,635
1	0,000	96,112	1441,635
1	0,000	96,112	1441,736
1	0,000	96,112	1441,837
1	0,000	96,112	1441,937
1	0,000	96,112	1442,038
1	0,000	96,163	1442,139
1	0,000	96,163	1442,239
1	0,000	96,163	1442,441
1	0,000	96,163	1442,441
1	0,000	96,163	1442,542
1	0,000	96,214	1442,642
1	0,000	96,214	1442,642
1	0,000	96,214	1442,844
1	0,000	96,214	1442,944
1	0,000	96,214	1443,045
1	0,000	96,263	1443,146
1	0,000	96,263	1443,146
1	0,000	96,263	1443,246
1	0,000	96,263	1443,347
1	0,000	96,263	1443,549
1	0,000	96,313	1443,549
1	0,000	96,313	1443,649
1	0,000	96,313	1443,750
1	0,000	96,313	1443,851
1	0,000	96,313	1444,052
1	0,000	96,364	1444,153
1	0,000	96,364	1444,153
1	0,000	96,364	1444,455
1	0,000	96,364	1444,354
1	0,000	96,364	1444,254
1	0,000	96,413	1444,556
1	0,000	96,413	1444,656
1	0,000	96,413	1444,757
1	0,000	96,413	1444,757
1	0,000	96,413	1444,958
1	0,000	96,464	1444,958
1	0,000	96,464	1445,160
1	0,000	96,464	1445,261
1	0,000	96,464	1445,361
1	0,000	96,464	1445,361
1	0,000	96,514	1445,462
1	0,000	96,514	1445,563
1	0,000	96,514	1445,663
1	0,000	96,514	1445,764
1	0,000	96,514	1445,865
1	0,000	96,565	1446,066
1	0,000	96,565	1446,066
1	0,000	96,565	1446,167
1	0,000	96,565	1446,268
1	0,000	96,565	1446,368
1	0,000	96,615	1446,570
1	0,000	96,615	1446,570
1	0,000	96,615	1446,771
1	0,000	96,615	1446,973
1	0,000	96,615	1446,872
1	0,000	96,665	1446,973
1	0,000	96,665	1446,872
1	0,000	96,665	1447,174
1	0,000	96,665	1447,275
1	0,000	96,665	1447,375
1	0,000	96,716	1447,476
1	0,000	96,716	1447,577
1	0,000	96,716	1447,678
1	0,000	96,716	1447,678
1	0,000	96,716	1447,879
1	0,000	96,767	1447,375
1	0,000	96,767	1448,383
1	0,000	96,767	1448,181
1	0,000	96,767	1448,181
1	0,000	96,767	1448,383
1	0,000	96,817	1448,483
1	0,000	96,817	1448,584
1	0,000	96,817	1448,584
1	0,000	96,817	1448,785
1	0,000	96,817	1448,886
1	0,000	96,866	1448,886
1	0,000	96,866	1449,088
1	0,000	96,866	1449,289
1	0,000	96,866	1449,390
1	0,000	96,866	1449,490
1	0,000	96,916	1449,390
1	0,000	96,916	1449,591
1	0,000	96,916	1449,591
1	0,000	96,916	1449,893
1	0,000	96,916	1449,893
1	0,000	96,967	1450,095
1	0,000	96,967	1449,994
1	0,000	96,967	1450,195
1	0,000	96,967	1450,296
1	0,000	96,967	1450,397
1	0,000	97,017	1450,598
1	0,000	97,017	1450,598
1	0,000	97,017	1450,699
1	0,000	97,017	1450,800
1	0,000	97,017	1450,900
1	0,000	97,067	1451,001
1	0,000	97,067	1451,102
1	0,000	97,067	1451,202
1	0,000	97,067	1451,303
1	0,000	97,067	1451,303
1	0,000	97,117	1451,505
1	0,000	97,117	1451,706
1	0,000	97,117	1451,706
1	0,000	97,117	1451,907
1	0,000	97,117	1451,907
1	0,000	97,167	1452,008
1	0,000	97,167	1452,109
1	0,000	97,167	1452,209
1	0,000	97,167	1452,310
1	0,000	97,167	1452,411
1	0,000	97,217	1452,411
1	0,000	97,217	1452,612
1	0,000	97,217	1452,612
1	0,000	97,217	1452,814
1	0,000	97,217	1452,914
1	0,000	97,217	1453,116
1	0,000	97,268	1453,116
1	0,000	97,268	1453,217
1	0,000	97,268	1453,317
1	0,000	97,268	1453,519
1	0,000	97,268	1453,519
1	0,000	97,317	1453,720
1	0,000	97,317	1453,720
1	0,000	97,317	1453,821
1	0,000	97,317	1453,922
1	0,000	97,368	1454,123
1	0,000	97,368	1454,224
1	0,000	97,368	1453,821
1	0,000	97,368	1454,526
1	0,000	97,368	1454,425
1	0,000	97,417	1454,526
1	0,000	97,417	1454,626
1	0,000	97,417	1454,727
1	0,000	97,417	1454,828
1	0,000	97,417	1454,929
1	0,000	97,468	1455,029
1	0,000	97,468	1455,130
1	0,000	97,468	1455,130
1	0,000	97,468	1455,231
1	0,000	97,468	1455,533
1	0,000	97,468	1455,634
1	0,000	97,517	1455,634
1	0,000	97,517	1455,835
1	0,000	97,517	1455,835
1	0,000	97,517	1455,936
1	0,000	97,567	1456,036
1	0,000	97,567	1456,036
1	0,000	97,567	1456,137
1	0,000	97,567	1456,439
1	0,000	97,567	1456,540
1	0,000	97,567	1456,540
1	0,000	97,618	1456,641
1	0,000	97,618	1456,842
1	0,000	97,618	1456,842
1	0,000	97,618	1456,943
1	0,000	97,618	1457,144
1	0,000	97,668	1457,144
1	0,000	97,668	1457,245
1	0,000	97,668	1457,346
1	0,000	97,668	1457,446
1	0,000	97,668	1457,547
1	0,000	97,718	1457,648
1	0,000	97,718	1457,748
1	0,000	97,718	1457,849
1	0,000	97,718	1457,950
1	0,000	97,718	1458,051
1	0,000	97,768	1458,151
1	0,000	97,768	1458,252
1	0,000	97,768	1458,353
1	0,000	97,768	1458,453
1	0,000	97,818	1458,554
1	0,000	97,818	1458,655
1	0,000	97,818	1458,957
1	0,000	97,818	1458,957
1	0,000	97,818	1458,957
1	0,000	97,818	1459,058
1	0,000	97,868	1459,158
1	0,000	97,868	1459,360
1	0,000	97,868	1459,360
1	0,000	97,868	1459,561
1	0,000	97,868	1459,561
1	0,000	97,918	1459,863
1	0,000	97,918	1459,863
1	0,000	97,918	1459,863
1	0,000	97,918	1460,165
1	0,000	97,918	1460,165
1	0,000	97,968	1460,266
1	0,000	97,968	1460,367
1	0,000	97,968	1460,568
1	0,000	97,968	1460,568
1	0,000	97,968	1460,669
1	0,000	98,018	1460,770
1	0,000	98,018	1460,870
1	0,000	98,018	1460,971
1	0,000	98,018	1461,072
1	0,000	98,018	1461,172
1	0,000	98,068	1461,273
1	0,000	98,068	1461,374
1	0,000	98,068	1461,475
1	0,000	98,068	1461,676
1	0,000	98,068	1461,676
1	0,000	98,118	1461,877
1	0,000	98,118	1461,978
1	0,000	98,118	1462,079
1	0,000	98,118	1462,180
1	0,000	98,118	1462,280
1	0,000	98,169	1462,381
1	0,000	98,169	1462,482
1	0,000	98,169	1462,582
1	0,000	98,169	1462,582
1	0,000	98,169	1462,784
1	0,000	98,219	1462,985
1	0,000	98,219	1462,985
1	0,000	98,219	1463,086
1	0,000	98,219	1463,187
1	0,000	98,269	1463,287
1	0,000	98,269	1463,388
1	0,000	98,269	1463,589
1	0,000	98,269	1463,589
1	0,000	98,269	1463,791
1	0,000	98,269	1463,791
1	0,000	98,318	1463,892
1	0,000	98,318	1464,194
1	0,000	98,318	1464,194
1	0,000	98,318	1464,294
1	0,000	98,318	1464,294
1	0,000	98,369	1464,496
1	0,000	98,369	1464,597
1	0,000	98,369	1464,697
1	0,000	98,369	1464,798
1	0,000	98,369	1464,899
1	0,000	98,420	1464,999
1	0,000	98,420	1465,100
1	0,000	98,420	1465,302
1	0,000	98,420	1465,201
1	0,000	98,420	1465,402
1	0,000	98,470	1465,604
1	0,000	98,470	1465,604
1	0,000	98,470	1465,704
1	0,000	98,470	1465,805
1	0,000	98,470	1466,006
1	0,000	98,520	1466,006
1	0,000	98,520	1466,006
1	0,000	98,520	1466,208
1	0,000	98,520	1466,309
1	0,000	98,520	1466,409
1	0,000	98,570	1466,510
1	0,000	98,570	1466,611
1	0,000	98,570	1466,812
1	0,000	98,570	1466,913
1	0,000	98,570	1467,014
1	0,000	98,620	1467,014
1	0,000	98,620	1467,215
1	0,000	98,620	1467,316
1	0,000	98,620	1467,416
1	0,000	98,620	1467,618
1	0,000	98,670	1467,618
1	0,000	98,670	1467,719
1	0,000	98,670	1467,819
1	0,000	98,670	1467,920
1	0,000	98,670	1468,121
1	0,000	98,721	1468,222
1	0,000	98,721	1468,323
1	0,000	98,721	1468,423
1	0,000	98,721	1468,524
1	0,000	98,721	1468,625
1	0,000	98,771	1468,726
1	0,000	98,771	1468,726
1	0,000	98,771	1468,726
1	0,000	98,771	1469,028
1	0,000	98,771	1469,128
1	0,000	98,821	1469,128
1	0,000	98,821	1469,330
1	0,000	98,821	1469,028
1	0,000	98,821	1469,531
1	0,000	98,821	1469,632
1	0,000	98,871	1469,733
1	0,000	98,871	1469,934
1	0,000	98,871	1470,035
1	0,000	98,871	1470,035
1	0,000	98,871	1470,135
1	0,000	98,921	1470,236
1	0,000	98,921	1470,337
1	0,000	98,921	1470,337
1	0,000	98,921	1470,538
1	0,000	98,921	1470,740
1	0,000	98,971	1470,840
1	0,000	98,971	1470,941
1	0,000	98,971	1471,042
1	0,000	98,971	1471,143
1	0,000	98,971	1471,243
1	0,000	99,021	1471,243
1	0,000	99,021	1471,445
1	0,000	99,021	1471,646
1	0,000	99,021	1471,646
1	0,000	99,021	1471,747
1	0,000	99,071	1471,848
1	0,000	99,071	1471,948
1	0,000	99,071	1472,150
1	0,000	99,071	1472,150
1	0,000	99,071	1472,351
1	0,000	99,121	1472,452
1	0,000	99,121	1472,653
1	0,000	99,121	1472,653
1	0,000	99,121	1472,855
1	0,000	99,121	1472,955
1	0,000	99,171	1473,056
1	0,000	99,171	1473,157
1	0,000	99,171	1473,157
1	0,000	99,171	1473,257
1	0,000	99,171	1473,459
1	0,000	99,221	1473,459
1	0,000	99,221	1473,660
1	0,000	99,221	1473,660
1	0,000	99,221	1473,862
1	0,000	99,221	1473,862
1	0,000	99,271	1474,063
1	0,000	99,271	1474,164
1	0,000	99,271	1474,265
1	0,000	99,271	1474,365
1	0,000	99,271	1474,567
1	0,000	99,322	1474,667
1	0,000	99,322	1474,869
1	0,000	99,322	1474,869
1	0,000	99,322	1474,969
1	0,000	99,322	1474,969
1	0,000	99,372	1475,171
1	0,000	99,372	1475,272
1	0,000	99,372	1475,372
1	0,000	99,372	1475,473
1	0,000	99,372	1475,574
1	0,000	99,422	1475,775
1	0,000	99,422	1475,775
1	0,000	99,422	1475,977
1	0,000	99,422	1476,077
1	0,000	99,422	1476,077
1	0,000	99,472	1476,279
1	0,000	99,472	1476,379
1	0,000	99,472	1476,379
1	0,000	99,472	1476,581
1	0,000	99,472	1476,581
1	0,000	99,523	1476,682
1	0,000	99,523	1476,782
1	0,000	99,523	1476,984
1	0,000	99,523	1477,084
1	0,000	99,523	1477,185
1	0,000	99,573	1477,286
1	0,000	99,573	1477,386
1	0,000	99,573	1476,883
1	0,000	99,573	1477,588
1	0,000	99,573	1477,890
1	0,000	99,623	1477,588
1	0,000	99,623	1477,991
1	0,000	99,623	1478,091
1	0,000	99,623	1478,192
1	0,000	99,623	1478,293
1	0,000	99,673	1478,394
1	0,000	99,673	1478,494
1	0,000	99,673	1478,595
1	0,000	99,673	1478,696
1	0,000	99,673	1478,796
1	0,000	99,723	1479,099
1	0,000	99,723	1478,998
1	0,000	99,723	1479,099
1	0,000	99,723	1479,199
1	0,000	99,723	1479,401
1	0,000	99,774	1479,501
1	0,000	99,774	1479,602
1	0,000	99,774	1479,703
1	0,000	99,774	1479,904
1	0,000	99,774	1479,904
1	0,000	99,824	1479,904
1	0,000	99,824	1480,206
1	0,000	99,824	1480,307
1	0,000	99,824	1480,408
1	0,000	99,824	1480,508
1	0,000	99,874	1480,508
1	0,000	99,874	1480,609
1	0,000	99,874	1480,710
1	0,000	99,874	1480,911
1	0,000	99,874	1481,012
1	0,000	99,924	1481,314
1	0,000	99,924	1481,213
1	0,000	99,924	1481,415
1	0,000	99,924	1481,516
1	0,000	99,924	1481,616
1	0,000	99,974	1481,616
1	0,000	99,974	1481,818
1	0,000	99,974	1481,918
1	0,000	99,974	1482,019
1	0,000	99,974	1482,120
1	0,000	100,024	1482,321
1	0,000	100,024	1482,422
1	0,000	100,024	1482,422
1	0,000	100,024	1482,623
1	0,000	100,024	1482,724
1	0,000	100,074	1482,825
1	0,000	100,074	1482,925
1	0,000	100,074	1483,026
1	0,000	100,074	1483,228
1	0,000	100,074	1483,328
1	0,000	100,124	1483,328
1	0,000	100,124	1483,530
1	0,000	100,124	1483,530
1	0,000	100,124	1483,731
1	0,000	100,124	1483,832
1	0,000	100,174	1483,932
1	0,000	100,174	1484,033
1	0,000	100,174	1484,134
1	0,000	100,174	1484,235
1	0,000	100,174	1484,335
1	0,000	100,224	1484,537
1	0,000	100,224	1484,738
1	0,000	100,224	1484,839
1	0,000	100,224	1484,839
1	0,000	100,224	1484,940
1	0,000	100,274	1485,141
1	0,000	100,274	1485,141
1	0,000	100,274	1485,242
1	0,000	100,274	1485,342
1	0,000	100,274	1485,544
1	0,000	100,324	1485,645
1	0,000	100,324	1485,645
1	0,000	100,324	1485,846
1	0,000	100,324	1485,947
1	0,000	100,324	1486,047
1	0,000	100,374	1486,148
1	0,000	100,374	1486,249
1	0,000	100,374	1486,450
1	0,000	100,374	1486,450
1	0,000	100,374	1486,652
1	0,000	100,424	1486,652
1	0,000	100,424	1486,752
1	0,000	100,424	1486,954
1	0,000	100,424	1487,054
1	0,000	100,424	1487,155
1	0,000	100,474	1487,357
1	0,000	100,474	1487,457
1	0,000	100,474	1487,457
1	0,000	100,474	1487,457
1	0,000	100,474	1487,759
1	0,000	100,525	1487,860
1	0,000	100,525	1488,062
1	0,000	100,525	1488,062
1	0,000	100,525	1488,565
1	0,000	100,525	1488,364
1	0,000	100,575	1488,364
1	0,000	100,575	1488,666
1	0,000	100,575	1488,565
1	0,000	100,575	1488,766
1	0,000	100,575	1488,867
1	0,000	100,624	1488,968
1	0,000	100,624	1488,766
1	0,000	100,624	1489,270
1	0,000	100,624	1489,371
1	0,000	100,624	1489,471
1	0,000	100,675	1489,471
1	0,000	100,675	1489,774
1	0,000	100,675	1489,874
1	0,000	100,675	1489,975
1	0,000	100,675	1489,975
1	0,000	100,724	1490,076
1	0,000	100,724	1490,176
1	0,000	100,724	1490,378
1	0,000	100,724	1490,479
1	0,000	100,724	1490,479
1	0,000	100,775	1490,680
1	0,000	100,775	1490,781
1	0,000	100,775	1490,982
1	0,000	100,775	1490,982
1	0,000	100,775	1491,083
1	0,000	100,825	1490,982
1	0,000	100,825	1491,385
1	0,000	100,825	1491,486
1	0,000	100,825	1491,385
1	0,000	100,825	1491,486
1	0,000	100,875	1491,788
1	0,000	100,875	1491,888
1	0,000	100,875	1491,989
1	0,000	100,875	1491,989
1	0,000	100,875	1492,090
1	0,000	100,925	1492,291
1	0,000	100,925	1492,392
1	0,000	100,925	1492,593
1	0,000	100,925	1492,795
1	0,000	100,925	1492,795
1	0,000	100,975	1492,996
1	0,000	100,975	1492,996
1	0,000	100,975	1493,097
1	0,000	100,975	1493,198
1	0,000	100,975	1493,298
1	0,000	101,025	1493,399
1	0,000	101,025	1493,500
1	0,000	101,025	1493,600
1	0,000	101,025	1493,802
1	0,000	101,025	1494,003
1	0,000	101,075	1494,104
1	0,000	101,075	1494,104
1	0,000	101,075	1494,205
1	0,000	101,075	1494,406
1	0,000	101,075	1494,507
1	0,000	101,125	1494,507
1	0,000	101,125	1494,708
1	0,000	101,125	1494,809
1	0,000	101,125	1494,910
1	0,000	101,125	1495,010
1	0,000	101,175	1495,111
1	0,000	101,175	1495,212
1	0,000	101,175	1495,312
1	0,000	101,175	1495,514
1	0,000	101,175	1495,715
1	0,000	101,225	1495,715
1	0,000	101,225	1495,816
1	0,000	101,225	1495,917
1	0,000	101,225	1495,816
1	0,000	101,225	1496,219
1	0,000	101,275	1496,320
1	0,000	101,275	1496,420
1	0,000	101,275	1496,521
1	0,000	101,275	1496,622
1	0,000	101,275	1496,823
1	0,000	101,325	1496,823
1	0,000	101,325	1497,025
1	0,000	101,325	1497,125
1	0,000	101,325	1497,226
1	0,000	101,325	1497,226
1	0,000	101,375	1497,327
1	0,000	101,375	1497,629
1	0,000	101,375	1497,729
1	0,000	101,375	1497,830
1	0,000	101,375	1497,931
1	0,000	101,425	1498,132
1	0,000	101,425	1498,233
1	0,000	101,425	1498,334
1	0,000	101,425	1498,434
1	0,000	101,425	1498,535
1	0,000	101,475	1498,737
1	0,000	101,475	1498,837
1	0,000	101,475	1498,938
1	0,000	101,475	1499,039
1	0,000	101,475	1499,240
1	0,000	101,525	1499,542
1	0,000	101,525	1499,341
1	0,000	101,525	1499,542
1	0,000	101,525	1499,542
1	0,000	101,525	1499,643
1	0,000	101,575	1499,844
1	0,000	101,575	1499,744
1	0,000	101,575	1500,146
1	0,000	101,575	1500,146
1	0,000	101,575	1500,247
1	0,000	101,625	1500,348
1	0,000	101,625	1500,449
1	0,000	101,625	1500,650
1	0,000	101,625	1500,650
1	0,000	101,625	1500,449
1	0,000	101,675	1500,952
1	0,000	101,675	1501,053
1	0,000	101,675	1501,154
1	0,000	101,675	1501,355
1	0,000	101,675	1501,456
1	0,000	101,725	1501,355
1	0,000	101,725	1501,657
1	0,000	101,725	1501,758
1	0,000	101,725	1501,959
1	0,000	101,725	1501,959
1	0,000	101,775	1502,161
1	0,000	101,775	1502,161
1	0,000	101,775	1502,362
1	0,000	101,775	1502,161
1	0,000	101,775	1502,664
1	0,000	101,825	1502,765
1	0,000	101,825	1502,866
1	0,000	101,825	1502,664
1	0,000	101,825	1503,268
1	0,000	101,825	1502,966
1	0,000	101,875	1503,369
1	0,000	101,875	1503,470
1	0,000	101,875	1503,671
1	0,000	101,875	1503,772
1	0,000	101,875	1503,873
1	0,000	101,925	1503,873
1	0,000	101,925	1503,973
1	0,000	101,925	1504,175
1	0,000	101,925	1504,276
1	0,000	101,925	1504,276
1	0,000	101,975	1504,477
1	0,000	101,975	1504,578
1	0,000	101,975	1504,678
1	0,000	101,975	1504,779
1	0,000	101,975	1504,880
1	0,000	102,025	1505,081
1	0,000	102,025	1505,182
1	0,000	102,025	1505,283
1	0,000	102,025	1505,383
1	0,000	102,025	1505,484
1	0,000	102,075	1505,685
1	0,000	102,075	1505,786
1	0,000	102,075	1505,887
1	0,000	102,075	1506,088
1	0,000	102,075	1506,189
1	0,000	102,125	1506,290
1	0,000	102,125	1506,390
1	0,000	102,125	1506,390
1	0,000	102,125	1506,693
1	0,000	102,125	1506,693
1	0,000	102,125	1506,894
1	0,000	102,175	1507,095
1	0,000	102,175	1507,095
1	0,000	102,175	1507,196
1	0,000	102,175	1507,397
1	0,000	102,175	1507,397
1	0,000	102,226	1507,599
1	0,000	102,226	1507,700
1	0,000	102,226	1507,800
1	0,000	102,226	1508,002
1	0,000	102,226	1508,002
1	0,000	102,276	1508,203
1	0,000	102,276	1508,304
1	0,000	102,276	1508,405
1	0,000	102,276	1508,606
1	0,000	102,276	1508,707
1	0,000	102,326	1508,908
1	0,000	102,326	1508,908
1	0,000	102,326	1509,009
1	0,000	102,326	1509,009
1	0,000	102,375	1509,311
1	0,000	102,375	1509,412
1	0,000	102,375	1509,512
1	0,000	102,375	1509,613
1	0,000	102,375	1509,814
1	0,000	102,425	1509,915
1	0,000	102,425	1510,117
1	0,000	102,425	1510,217
1	0,000	102,425	1510,318
1	0,000	102,425	1510,419
1	0,000	102,475	1510,620
1	0,000	102,475	1510,721
1	0,000	102,475	1510,822
1	0,000	102,475	1510,922
1	0,000	102,475	1511,124
1	0,000	102,475	1511,224
1	0,000	102,525	1511,325
1	0,000	102,525	1511,526
1	0,000	102,525	1511,426
1	0,000	102,525	1511,627
1	0,000	102,525	1511,728
1	0,000	102,575	1511,829
1	0,000	102,575	1511,929
1	0,000	102,575	1512,131
1	0,000	102,575	1512,231
1	0,000	102,575	1512,231
1	0,000	102,625	1512,433
1	0,000	102,625	1512,534
1	0,000	102,625	1512,634
1	0,000	102,625	1512,936
1	0,000	102,625	1512,936
1	0,000	102,675	1513,138
1	0,000	102,675	1513,239
1	0,000	102,675	1513,239
1	0,000	102,675	1513,541
1	0,000	102,726	1513,742
1	0,000	102,726	1513,843
1	0,000	102,726	1513,742
1	0,000	102,726	1513,943
1	0,000	102,726	1513,943
1	0,000	102,726	1514,145
1	0,000	102,776	1514,246
1	0,000	102,776	1514,346
1	0,000	102,776	1514,447
1	0,000	102,776	1514,648
1	0,000	102,826	1514,548
1	0,000	102,826	1514,850
1	0,000	102,826	1514,648
1	0,000	102,826	1515,051
1	0,000	102,826	1515,253
1	0,000	102,876	1515,353
1	0,000	102,876	1515,454
1	0,000	102,876	1515,555
1	0,000	102,876	1515,656
1	0,000	102,876	1515,756
1	0,000	102,876	1515,958
1	0,000	102,927	1516,058
1	0,000	102,927	1516,159
1	0,000	102,927	1516,260
1	0,000	102,927	1516,461
1	0,000	102,927	1516,461
1	0,000	102,977	1516,663
1	0,000	102,977	1516,763
1	0,000	102,977	1516,864
1	0,000	102,977	1516,864
1	0,000	102,977	1517,166
1	0,000	103,026	1517,267
1	0,000	103,026	1517,368
1	0,000	103,026	1517,569
1	0,000	103,026	1517,770
1	0,000	103,026	1517,770
1	0,000	103,077	1517,871
1	0,000	103,077	1517,972
1	0,000	103,077	1518,173
1	0,000	103,077	1518,274
1	0,000	103,077	1518,475
1	0,000	103,127	1518,576
1	0,000	103,127	1518,677
1	0,000	103,127	1518,777
1	0,000	103,127	1518,878
1	0,000	103,127	1519,080
1	0,000	103,177	1519,180
1	0,000	103,177	1519,180
1	0,000	103,177	1519,382
1	0,000	103,177	1519,482
1	0,000	103,177	1519,684
1	0,000	103,227	1519,684
1	0,000	103,227	1519,785
1	0,000	103,227	1520,087
1	0,000	103,227	1520,087
1	0,000	103,227	1520,288
1	0,000	103,277	1520,187
1	0,000	103,277	1519,986
1	0,000	103,277	1520,691
1	0,000	103,277	1520,792
1	0,000	103,277	1520,892
1	0,000	103,327	1520,792
1	0,000	103,327	1521,094
1	0,000	103,327	1521,194
1	0,000	103,327	1521,396
1	0,000	103,327	1521,396
1	0,000	103,377	1521,597
1	0,000	103,377	1521,698
1	0,000	103,377	1521,799
1	0,000	103,377	1522,000
1	0,000	103,377	1522,000
1	0,000	103,428	1522,202
1	0,000	103,428	1522,403
1	0,000	103,428	1522,604
1	0,000	103,428	1522,705
1	0,000	103,428	1522,705
1	0,000	103,477	1522,906
1	0,000	103,477	1522,806
1	0,000	103,477	1523,108
1	0,000	103,477	1523,209
1	0,000	103,477	1523,410
1	0,000	103,527	1523,511
1	0,000	103,527	1523,611
1	0,000	103,527	1523,813
1	0,000	103,527	1524,014
1	0,000	103,527	1523,914
1	0,000	103,577	1524,014
1	0,000	103,577	1524,115
1	0,000	103,577	1524,316
1	0,000	103,577	1524,417
1	0,000	103,577	1524,518
1	0,000	103,628	1524,619
1	0,000	103,628	1524,719
1	0,000	103,628	1524,921
1	0,000	103,628	1525,021
1	0,000	103,628	1525,223
1	0,000	103,678	1525,223
1	0,000	103,678	1525,424
1	0,000	103,678	1525,424
1	0,000	103,678	1525,726
1	0,000	103,678	1525,827
1	0,000	103,727	1525,928
1	0,000	103,727	1526,028
1	0,000	103,727	1526,129
1	0,000	103,727	1526,230
1	0,000	103,727	1526,331
1	0,000	103,778	1526,532
1	0,000	103,778	1526,633
1	0,000	103,778	1526,834
1	0,000	103,778	1526,733
1	0,000	103,778	1527,136
1	0,000	103,828	1527,136
1	0,000	103,828	1527,237
1	0,000	103,828	1527,438
1	0,000	103,828	1527,539
1	0,000	103,828	1527,539
1	0,000	103,878	1527,841
1	0,000	103,878	1527,942
1	0,000	103,878	1528,143
1	0,000	103,878	1528,143
1	0,000	103,878	1528,244
1	0,000	103,928	1528,445
1	0,000	103,928	1528,647
1	0,000	103,928	1528,848
1	0,000	103,928	1528,848
1	0,000	103,928	1529,050
1	0,000	103,979	1529,150
1	0,000	103,979	1529,251
1	0,000	103,979	1529,352
1	0,000	103,979	1529,453
1	0,000	103,979	1529,553
1	0,000	104,029	1529,855
1	0,000	104,029	1529,855
1	0,000	104,029	1530,057
1	0,000	104,029	1530,057
1	0,000	104,029	1530,258
1	0,000	104,079	1530,359
1	0,000	104,079	1530,460
1	0,000	104,079	1530,560
1	0,000	104,079	1530,661
1	0,000	104,079	1530,862
1	0,000	104,129	1530,963
1	0,000	104,129	1531,165
1	0,000	104,129	1531,265
1	0,000	104,129	1531,366
1	0,000	104,129	1531,467
1	0,000	104,180	1531,668
1	0,000	104,180	1531,668
1	0,000	104,180	1531,467
1	0,000	104,180	1532,071
1	0,000	104,180	1532,071
1	0,000	104,229	1532,272
1	0,000	104,229	1532,373
1	0,000	104,229	1532,675
1	0,000	104,229	1532,675
1	0,000	104,229	1532,776
1	0,000	104,279	1532,877
1	0,000	104,279	1532,977
1	0,000	104,279	1533,179
1	0,000	104,279	1533,380
1	0,000	104,279	1533,380
1	0,000	104,330	1533,682
1	0,000	104,330	1533,582
1	0,000	104,330	1533,783
1	0,000	104,330	1533,884
1	0,000	104,330	1533,984
1	0,000	104,380	1534,085
1	0,000	104,380	1534,286
1	0,000	104,380	1534,387
1	0,000	104,380	1534,488
1	0,000	104,380	1534,891
1	0,000	104,430	1534,790
1	0,000	104,430	1535,092
1	0,000	104,430	1535,092
1	0,000	104,430	1535,294
1	0,000	104,430	1535,394
1	0,000	104,480	1535,596
1	0,000	104,480	1535,596
1	0,000	104,480	1535,797
1	0,000	104,480	1535,898
1	0,000	104,480	1536,099
1	0,000	104,531	1536,200
1	0,000	104,531	1536,301
1	0,000	104,531	1536,401
1	0,000	104,531	1536,502
1	0,000	104,531	1536,502
1	0,000	104,580	1536,703
1	0,000	104,580	1537,106
1	0,000	104,580	1537,106
1	0,000	104,580	1537,308
1	0,000	104,580	1537,308
1	0,000	104,631	1537,610
1	0,000	104,631	1537,811
1	0,000	104,631	1537,610
1	0,000	104,631	1537,811
1	0,000	104,631	1537,912
1	0,000	104,681	1537,711
1	0,000	104,681	1538,214
1	0,000	104,681	1538,315
1	0,000	104,681	1538,416
1	0,000	104,681	1538,617
1	0,000	104,731	1538,718
1	0,000	104,731	1538,718
1	0,000	104,731	1538,919
1	0,000	104,731	1538,919
1	0,000	104,731	1539,221
1	0,000	104,781	1539,322
1	0,000	104,781	2019,397
1	0,000	104,781	1539,423
1	0,000	104,781	1539,624
1	0,000	104,781	1539,725
1	0,000	104,781	1539,825
1	0,000	104,831	1540,027
1	0,000	104,831	1540,228
1	0,000	104,831	1540,430
1	0,000	104,831	1540,732
1	0,000	104,831	1540,732
1	0,000	104,881	1540,933
1	0,000	104,881	1541,135
1	0,000	104,881	1541,235
1	0,000	104,881	1541,336
1	0,000	104,881	1541,437
1	0,000	104,931	1541,537
1	0,000	104,931	1541,739
1	0,000	104,931	1541,739
1	0,000	104,931	1541,840
1	0,000	104,931	1541,840
1	0,000	104,981	1542,142
1	0,000	104,981	1542,343
1	0,000	104,981	1542,444
1	0,000	104,981	1542,444
1	0,000	104,981	1542,545
1	0,000	105,030	1542,645
1	0,000	105,030	1542,847
1	0,000	105,030	1542,947
1	0,000	105,030	1543,048
1	0,000	105,030	1543,149
1	0,000	105,081	1543,250
1	0,000	105,081	1543,451
1	0,000	105,081	1543,552
1	0,000	105,081	1543,652
1	0,000	105,081	1543,854
1	0,000	105,131	1543,854
1	0,000	105,131	1544,055
1	0,000	105,131	1544,055
1	0,000	105,131	1544,357
1	0,000	105,131	1544,257
1	0,000	105,181	1544,559
1	0,000	105,181	1544,760
1	0,000	105,181	1545,264
1	0,000	105,181	1545,364
1	0,000	105,181	1545,465
1	0,000	105,231	1545,364
1	0,000	105,231	1545,264
1	0,000	105,231	1545,767
1	0,000	105,231	1545,969
1	0,000	105,231	1546,069
1	0,000	105,281	1546,069
1	0,000	105,281	1546,271
1	0,000	105,281	1546,271
1	0,000	105,281	1546,472
1	0,000	105,281	1546,472
1	0,000	105,331	1546,674
1	0,000	105,331	1546,674
1	0,000	105,331	1546,875
1	0,000	105,331	1546,976
1	0,000	105,331	1547,177
1	0,000	105,381	1547,278
1	0,000	105,381	1547,379
1	0,000	105,381	1547,580
1	0,000	105,381	1547,580
1	0,000	105,381	1547,781
1	0,000	105,432	1547,983
1	0,000	105,432	1547,983
1	0,000	105,432	1548,285
1	0,000	105,432	1548,386
1	0,000	105,432	1548,688
1	0,000	105,481	1548,688
1	0,000	105,481	1549,091
1	0,000	105,481	1549,292
1	0,000	105,481	1549,292
1	0,000	105,481	1549,393
1	0,000	105,531	1549,292
1	0,000	105,531	1549,191
1	0,000	105,531	1549,796
1	0,000	105,531	1549,896
1	0,000	105,531	1550,098
1	0,000	105,581	1550,299
1	0,000	105,581	1550,400
1	0,000	105,581	1550,500
1	0,000	105,581	1550,601
1	0,000	105,581	1550,702
1	0,000	105,632	1551,004
1	0,000	105,632	1550,903
1	0,000	105,632	1551,004
1	0,000	105,632	1551,205
1	0,000	105,632	1551,306
1	0,000	105,682	1551,508
1	0,000	105,682	1551,608
1	0,000	105,682	1551,709
1	0,000	105,682	1551,810
1	0,000	105,682	1551,910
1	0,000	105,732	1552,112
1	0,000	105,732	1552,213
1	0,000	105,732	1552,414
1	0,000	105,732	1552,515
1	0,000	105,732	1552,615
1	0,000	105,782	1552,615
1	0,000	105,782	1552,716
1	0,000	105,782	1552,716
1	0,000	105,782	1552,917
1	0,000	105,782	1553,119
1	0,000	105,833	1553,220
1	0,000	105,833	1553,320
1	0,000	105,833	1553,421
1	0,000	105,833	1553,925
1	0,000	105,833	1554,025
1	0,000	105,883	1554,025
1	0,000	105,883	1554,327
1	0,000	105,883	1554,428
1	0,000	105,883	1554,529
1	0,000	105,883	1554,630
1	0,000	105,933	1554,428
1	0,000	105,933	1554,730
1	0,000	105,933	1554,529
1	0,000	105,933	1555,032
1	0,000	105,933	1555,133
1	0,000	105,983	1555,435
1	0,000	105,983	1555,536
1	0,000	105,983	1555,536
1	0,000	105,983	1555,838
1	0,000	105,983	1555,838
1	0,000	106,033	1556,039
1	0,000	106,033	1556,140
1	0,000	106,033	1555,939
1	0,000	106,033	1556,442
1	0,000	106,033	1556,543
1	0,000	106,083	1556,744
1	0,000	106,083	1556,744
1	0,000	106,083	1556,946
1	0,000	106,083	1557,147
1	0,000	106,083	1557,147
1	0,000	106,133	1557,349
1	0,000	106,133	1557,248
1	0,000	106,133	1557,751
1	0,000	106,133	1557,852
1	0,000	106,133	1557,953
1	0,000	106,133	1557,953
1	0,000	106,183	1558,356
1	0,000	106,183	1558,456
1	0,000	106,183	1558,557
1	0,000	106,183	1558,658
1	0,000	106,234	1558,859
1	0,000	106,234	1558,859
1	0,000	106,234	1558,960
1	0,000	106,234	1559,161
1	0,000	106,234	1559,161
1	0,000	106,234	1559,363
1	0,000	106,284	1559,564
1	0,000	106,284	1559,665
1	0,000	106,284	1559,866
1	0,000	106,284	1559,967
1	0,000	106,334	1560,068
1	0,000	106,334	1560,269
1	0,000	106,334	1560,269
1	0,000	106,334	1560,168
1	0,000	106,334	1560,168
1	0,000	106,334	1560,773
1	0,000	106,383	1560,974
1	0,000	106,383	1561,075
1	0,000	106,383	1561,176
1	0,000	106,383	1561,276
1	0,000	106,434	1561,377
1	0,000	106,434	1561,578
1	0,000	106,434	1561,679
1	0,000	106,434	1561,880
1	0,000	106,434	1562,082
1	0,000	106,434	1562,183
1	0,000	106,484	1562,384
1	0,000	106,484	1562,686
1	0,000	106,484	1562,686
1	0,000	106,484	1562,787
1	0,000	106,534	1562,888
1	0,000	106,534	1562,888
1	0,000	106,534	1563,190
1	0,000	106,534	1563,290
1	0,000	106,534	1563,391
1	0,000	106,534	1563,492
1	0,000	106,584	1563,492
1	0,000	106,584	1563,794
1	0,000	106,584	1563,995
1	0,000	106,584	1564,096
1	0,000	106,584	1564,297
1	0,000	106,634	1564,297
1	0,000	106,634	1564,398
1	0,000	106,634	1564,499
1	0,000	106,634	1564,700
1	0,000	106,634	1564,902
1	0,000	106,684	1565,002
1	0,000	106,684	1565,103
1	0,000	106,684	1565,305
1	0,000	106,684	1565,305
1	0,000	106,684	1565,506
1	0,000	106,734	1565,607
1	0,000	106,734	1565,808
1	0,000	106,734	1565,909
1	0,000	106,734	1566,010
1	0,000	106,734	1566,211
1	0,000	106,784	1566,312
1	0,000	106,784	1566,513
1	0,000	106,784	1566,513
1	0,000	106,784	1566,916
1	0,000	106,784	1567,017
1	0,000	106,834	1567,117
1	0,000	106,834	1567,319
1	0,000	106,834	1567,419
1	0,000	106,834	1567,520
1	0,000	106,834	1567,722
1	0,000	106,885	1567,822
1	0,000	106,885	1567,923
1	0,000	106,885	1568,024
1	0,000	106,885	1568,124
1	0,000	106,885	1568,326
1	0,000	106,934	1568,427
1	0,000	106,934	1568,628
1	0,000	106,934	1568,729
1	0,000	106,934	1569,031
1	0,000	106,934	1568,930
1	0,000	106,985	1569,232
1	0,000	106,985	1569,434
1	0,000	106,985	1569,434
1	0,000	106,985	1569,434
1	0,000	106,985	1569,635
1	0,000	107,035	1569,836
1	0,000	107,035	1569,836
1	0,000	107,035	1570,139
1	0,000	107,035	1570,239
1	0,000	107,035	1570,340
1	0,000	107,085	1570,541
1	0,000	107,085	1570,642
1	0,000	107,085	1570,743
1	0,000	107,085	1570,844
1	0,000	107,085	1571,045
1	0,000	107,135	1571,246
1	0,000	107,135	1571,448
1	0,000	107,135	1571,548
1	0,000	107,135	1571,649
1	0,000	107,135	1571,851
1	0,000	107,185	1571,951
1	0,000	107,185	1572,153
1	0,000	107,185	1572,253
1	0,000	107,185	1572,354
1	0,000	107,185	1572,556
1	0,000	107,235	1572,757
1	0,000	107,235	1572,858
1	0,000	107,235	1572,958
1	0,000	107,235	1573,059
1	0,000	107,235	1573,160
1	0,000	107,285	1573,361
1	0,000	107,285	1573,462
1	0,000	107,285	1573,563
1	0,000	107,285	1573,764
1	0,000	107,285	1573,865
1	0,000	107,335	1574,066
1	0,000	107,335	1574,066
1	0,000	107,335	1574,268
1	0,000	107,335	1574,368
1	0,000	107,335	1574,570
1	0,000	107,386	1574,670
1	0,000	107,386	1574,771
1	0,000	107,386	1574,973
1	0,000	107,386	1575,073
1	0,000	107,386	1575,275
1	0,000	107,435	1575,476
1	0,000	107,435	1575,577
1	0,000	107,435	1575,879
1	0,000	107,435	1575,980
1	0,000	107,435	1576,181
1	0,000	107,486	1576,282
1	0,000	107,486	1576,382
1	0,000	107,486	1576,584
1	0,000	107,486	1576,685
1	0,000	107,486	1576,785
1	0,000	107,536	1576,987
1	0,000	107,536	1576,987
1	0,000	107,536	1577,188
1	0,000	107,536	1577,390
1	0,000	107,536	1577,490
1	0,000	107,586	1577,692
1	0,000	107,586	1577,792
1	0,000	107,586	1577,792
1	0,000	107,586	1577,994
1	0,000	107,586	1578,195
1	0,000	107,637	1578,296
1	0,000	107,637	1578,397
1	0,000	107,637	1578,497
1	0,000	107,637	1578,598
1	0,000	107,637	1578,799
1	0,000	107,687	1578,900
1	0,000	107,687	1579,102
1	0,000	107,687	1579,202
1	0,000	107,687	1579,404
1	0,000	107,687	1579,504
1	0,000	107,737	1579,706
1	0,000	107,737	1579,807
1	0,000	107,737	1579,907
1	0,000	107,737	1580,109
1	0,000	107,737	1580,310
1	0,000	107,788	1580,209
1	0,000	107,788	1580,612
1	0,000	107,788	1580,814
1	0,000	107,788	1581,015
1	0,000	107,788	1581,116
1	0,000	107,837	1581,216
1	0,000	107,837	1581,317
1	0,000	107,837	1581,519
1	0,000	107,837	1581,619
1	0,000	107,837	1581,720
1	0,000	107,888	1582,022
1	0,000	107,888	1582,123
1	0,000	107,888	1582,224
1	0,000	107,888	1582,324
1	0,000	107,888	1582,425
1	0,000	107,937	1582,526
1	0,000	107,937	1582,727
1	0,000	107,937	1582,828
1	0,000	107,937	1583,029
1	0,000	107,937	1583,130
1	0,000	107,987	1583,231
1	0,000	107,987	1583,432
1	0,000	107,987	1583,734
1	0,000	107,987	1583,633
1	0,000	107,987	1583,835
1	0,000	108,038	1583,936
1	0,000	108,038	1584,137
1	0,000	108,038	1584,238
1	0,000	108,038	1584,338
1	0,000	108,038	1584,540
1	0,000	108,087	1584,641
1	0,000	108,087	1584,842
1	0,000	108,087	1585,043
1	0,000	108,087	1585,144
1	0,000	108,087	1585,245
1	0,000	108,137	1585,345
1	0,000	108,137	1585,547
1	0,000	108,137	1585,748
1	0,000	108,137	1585,849
1	0,000	108,137	1586,050
1	0,000	108,187	1586,151
1	0,000	108,187	1586,050
1	0,000	108,187	1586,453
1	0,000	108,187	1586,554
1	0,000	108,187	1586,655
1	0,000	108,237	1586,856
1	0,000	108,237	1586,957
1	0,000	108,237	1587,259
1	0,000	108,237	1587,259
1	0,000	108,237	1587,360
1	0,000	108,288	1587,460
1	0,000	108,288	1587,662
1	0,000	108,288	1587,762
1	0,000	108,288	1587,863
1	0,000	108,288	1588,065
1	0,000	108,338	1587,964
1	0,000	108,338	1588,367
1	0,000	108,338	1588,467
1	0,000	108,338	1588,568
1	0,000	108,338	1588,770
1	0,000	108,388	1588,870
1	0,000	108,388	1588,971
1	0,000	108,388	1589,072
1	0,000	108,388	1589,273
1	0,000	108,388	1589,374
1	0,000	108,439	1589,575
1	0,000	108,439	1589,777
1	0,000	108,439	1589,978
1	0,000	108,439	1589,978
1	0,000	108,439	1590,179
1	0,000	108,489	1590,482
1	0,000	108,489	1590,482
1	0,000	108,489	1590,381
1	0,000	108,489	1590,884
1	0,000	108,489	1590,985
1	0,000	108,538	1591,086
1	0,000	108,538	1591,086
1	0,000	108,538	1591,388
1	0,000	108,538	1591,489
1	0,000	108,538	1590,784
1	0,000	108,588	1591,791
1	0,000	108,588	1591,891
1	0,000	108,588	1592,194
1	0,000	108,588	1592,194
1	0,000	108,588	1592,395
1	0,000	108,638	1592,093
1	0,000	108,638	1592,596
1	0,000	108,638	1592,697
1	0,000	108,638	1592,899
1	0,000	108,638	1593,100
1	0,000	108,689	1593,201
1	0,000	108,689	1593,301
1	0,000	108,689	1593,402
1	0,000	108,689	1593,604
1	0,000	108,689	1593,704
1	0,000	108,739	1593,100
1	0,000	108,739	1594,006
1	0,000	108,739	1594,006
1	0,000	108,739	1594,107
1	0,000	108,739	1594,208
1	0,000	108,789	1594,409
1	0,000	108,789	1594,711
1	0,000	108,789	1594,913
1	0,000	108,789	1595,114
1	0,000	108,789	1595,215
1	0,000	108,839	1595,416
1	0,000	108,839	1595,517
1	0,000	108,839	1595,718
1	0,000	108,839	1595,819
1	0,000	108,839	1596,021
1	0,000	108,889	1596,121
1	0,000	108,889	1596,323
1	0,000	108,889	1596,423
1	0,000	108,889	1596,524
1	0,000	108,889	1596,725
1	0,000	108,939	1596,826
1	0,000	108,939	1596,927
1	0,000	108,939	1597,028
1	0,000	108,939	1597,128
1	0,000	108,939	1597,430
1	0,000	108,989	1597,632
1	0,000	108,989	1597,733
1	0,000	108,989	1597,833
1	0,000	108,989	1598,035
1	0,000	108,989	1598,135
1	0,000	109,039	1598,337
1	0,000	109,039	1598,538
1	0,000	109,039	1598,538
1	0,000	109,039	1598,740
1	0,000	109,039	1598,941
1	0,000	109,089	1598,840
1	0,000	109,089	1598,941
1	0,000	109,089	1599,142
1	0,000	109,089	1599,545
1	0,000	109,089	1599,545
1	0,000	109,139	1599,747
1	0,000	109,139	1600,049
1	0,000	109,139	1600,150
1	0,000	109,139	1600,351
1	0,000	109,139	1600,552
1	0,000	109,189	1600,351
1	0,000	109,189	1600,250
1	0,000	109,189	1600,854
1	0,000	109,189	1601,056
1	0,000	109,189	1601,157
1	0,000	109,239	1601,358
1	0,000	109,239	1601,459
1	0,000	109,239	1601,660
1	0,000	109,239	1601,660
1	0,000	109,239	1601,862
1	0,000	109,289	1602,063
1	0,000	109,289	1602,063
1	0,000	109,289	1602,264
1	0,000	109,289	1602,466
1	0,000	109,289	1602,567
1	0,000	109,340	1602,667
1	0,000	109,340	1602,869
1	0,000	109,340	1602,969
1	0,000	109,340	1603,171
1	0,000	109,340	1603,271
1	0,000	109,390	1603,271
1	0,000	109,390	1603,473
1	0,000	109,390	1603,674
1	0,000	109,390	1603,674
1	0,000	109,390	1603,876
1	0,000	109,440	1604,077
1	0,000	109,440	1604,279
1	0,000	109,440	1604,480
1	0,000	109,440	1604,681
1	0,000	109,440	1604,782
1	0,000	109,490	1604,984
1	0,000	109,490	1605,185
1	0,000	109,490	1605,286
1	0,000	109,490	1605,386
1	0,000	109,490	1605,487
1	0,000	109,540	1605,588
1	0,000	109,540	1605,789
1	0,000	109,540	1606,091
1	0,000	109,540	1606,192
1	0,000	109,540	1606,293
1	0,000	109,591	1606,393
1	0,000	109,591	1606,595
1	0,000	109,591	1606,796
1	0,000	109,591	1606,897
1	0,000	109,591	1606,998
1	0,000	109,641	1607,098
1	0,000	109,641	1607,098
1	0,000	109,641	1607,199
1	0,000	109,641	1607,602
1	0,000	109,641	1607,602
1	0,000	109,691	1607,703
1	0,000	109,691	1607,803
1	0,000	109,691	1607,904
1	0,000	109,691	1608,105
1	0,000	109,691	1608,206
1	0,000	109,741	1608,408
1	0,000	109,741	1608,609
1	0,000	109,741	1608,609
1	0,000	109,741	1608,810
1	0,000	109,741	1608,911
1	0,000	109,791	1609,113
1	0,000	109,791	1609,213
1	0,000	109,791	1609,415
1	0,000	109,791	1609,415
1	0,000	109,791	1609,818
1	0,000	109,791	1609,717
1	0,000	109,841	1610,120
1	0,000	109,841	1610,220
1	0,000	109,841	1610,422
1	0,000	109,841	1610,422
1	0,000	109,841	1610,724
1	0,000	109,891	1610,825
1	0,000	109,891	1610,925
1	0,000	109,891	1611,127
1	0,000	109,891	1611,227
1	0,000	109,891	1611,429
1	0,000	109,942	1611,530
1	0,000	109,942	1611,630
1	0,000	109,942	1611,832
1	0,000	109,942	1611,932
1	0,000	109,942	1612,134
1	0,000	109,992	1612,234
1	0,000	109,992	1612,436
1	0,000	109,992	1612,537
1	0,000	109,992	1612,738
1	0,000	110,042	1612,839
1	0,000	110,042	1613,040
1	0,000	110,042	1613,141
1	0,000	110,042	1613,342
1	0,000	110,042	1613,443
1	0,000	110,042	1613,544
1	0,000	110,092	1613,544
1	0,000	110,092	1613,846
1	0,000	110,092	1613,846
1	0,000	110,092	1614,047
1	0,000	110,092	1614,249
1	0,000	110,142	1614,249
1	0,000	110,142	1614,752
1	0,000	110,142	1615,054
1	0,000	110,142	1614,954
1	0,000	110,142	1615,054
1	0,000	110,192	1615,256
1	0,000	110,192	1615,356
1	0,000	110,192	1615,457
1	0,000	110,192	1615,759
1	0,000	110,192	1615,860
1	0,000	110,242	1616,061
1	0,000	110,242	1616,162
1	0,000	110,242	1616,364
1	0,000	110,242	1616,464
1	0,000	110,242	1616,666
1	0,000	110,292	1616,867
1	0,000	110,292	1616,867
1	0,000	110,292	1617,068
1	0,000	110,292	1617,270
1	0,000	110,292	1617,471
1	0,000	110,342	1617,673
1	0,000	110,342	1617,773
1	0,000	110,342	1617,975
1	0,000	110,342	1617,874
1	0,000	110,342	1618,277
1	0,000	110,392	1618,378
1	0,000	110,392	1618,478
1	0,000	110,392	1618,680
1	0,000	110,392	1618,781
1	0,000	110,442	1618,982
1	0,000	110,442	1619,083
1	0,000	110,442	1619,284
1	0,000	110,442	1619,385
1	0,000	110,442	1619,586
1	0,000	110,442	1619,788
1	0,000	110,493	1619,888
1	0,000	110,493	1620,090
1	0,000	110,493	1620,190
1	0,000	110,493	1620,392
1	0,000	110,493	1620,493
1	0,000	110,543	1620,493
1	0,000	110,543	1620,795
1	0,000	110,543	1620,795
1	0,000	110,543	1621,097
1	0,000	110,543	1621,198
1	0,000	110,593	1621,298
1	0,000	110,593	1621,600
1	0,000	110,593	1621,701
1	0,000	110,593	1621,802
1	0,000	110,593	1621,902
1	0,000	110,643	1622,104
1	0,000	110,643	1622,205
1	0,000	110,643	1622,406
1	0,000	110,643	1622,507
1	0,000	110,643	1622,708
1	0,000	110,693	1622,809
1	0,000	110,693	1623,010
1	0,000	110,693	1623,312
1	0,000	110,693	1623,413
1	0,000	110,693	1623,514
1	0,000	110,742	1623,615
1	0,000	110,742	1623,816
1	0,000	110,742	1623,917
1	0,000	110,742	1624,118
1	0,000	110,742	1624,219
1	0,000	110,793	1624,420
1	0,000	110,793	1624,622
1	0,000	110,793	1624,722
1	0,000	110,793	1624,823
1	0,000	110,793	1625,024
1	0,000	110,843	1625,226
1	0,000	110,843	1625,327
1	0,000	110,843	1625,427
1	0,000	110,843	1625,629
1	0,000	110,843	1625,830
1	0,000	110,894	1625,931
1	0,000	110,894	1626,233
1	0,000	110,894	1626,434
1	0,000	110,894	1626,535
1	0,000	110,894	1626,636
1	0,000	110,943	1626,736
1	0,000	110,943	1626,938
1	0,000	110,943	1627,139
1	0,000	110,943	1627,240
1	0,000	110,943	1627,341
1	0,000	110,993	1627,542
1	0,000	110,993	1627,744
1	0,000	110,993	1627,844
1	0,000	110,993	1628,046
1	0,000	110,993	1628,247
1	0,000	111,043	1628,348
1	0,000	111,043	1628,448
1	0,000	111,043	1628,549
1	0,000	111,043	1628,751
1	0,000	111,043	1628,851
1	0,000	111,093	1629,254
1	0,000	111,093	1629,254
1	0,000	111,093	1629,153
1	0,000	111,093	1629,556
1	0,000	111,093	1629,657
1	0,000	111,143	1629,758
1	0,000	111,143	1629,959
1	0,000	111,143	1630,060
1	0,000	111,143	1630,261
1	0,000	111,143	1630,362
1	0,000	111,194	1630,563
1	0,000	111,194	1630,765
1	0,000	111,194	1630,865
1	0,000	111,194	1631,067
1	0,000	111,194	1631,168
1	0,000	111,243	1631,369
1	0,000	111,243	1631,570
1	0,000	111,243	1631,671
1	0,000	111,243	1631,772
1	0,000	111,243	1632,074
1	0,000	111,293	1632,175
1	0,000	111,293	1632,275
1	0,000	111,293	1632,376
1	0,000	111,293	1632,578
1	0,000	111,293	1632,678
1	0,000	111,343	1632,880
1	0,000	111,343	1632,980
1	0,000	111,343	1633,182
1	0,000	111,343	1633,282
1	0,000	111,343	1633,484
1	0,000	111,393	1633,585
1	0,000	111,393	1633,786
1	0,000	111,393	1633,887
1	0,000	111,393	1634,088
1	0,000	111,393	1634,189
1	0,000	111,444	1634,390
1	0,000	111,444	1634,692
1	0,000	111,444	1634,592
1	0,000	111,444	1634,894
1	0,000	111,444	1635,095
1	0,000	111,494	1635,196
1	0,000	111,494	1635,397
1	0,000	111,494	1635,498
1	0,000	111,494	1635,599
1	0,000	111,494	1635,800
1	0,000	111,544	1636,002
1	0,000	111,544	1636,203
1	0,000	111,544	1636,304
1	0,000	111,544	1636,404
1	0,000	111,544	1636,606
1	0,000	111,594	1636,707
1	0,000	111,594	1636,908
1	0,000	111,594	1637,109
1	0,000	111,594	1637,210
1	0,000	111,594	1637,311
1	0,000	111,644	1637,512
1	0,000	111,644	1637,512
1	0,000	111,644	1637,814
1	0,000	111,644	1637,915
1	0,000	111,644	1638,016
1	0,000	111,695	1638,318
1	0,000	111,695	1638,519
1	0,000	111,695	1638,620
1	0,000	111,695	1638,721
1	0,000	111,695	1638,922
1	0,000	111,745	1638,922
1	0,000	111,745	1639,426
1	0,000	111,745	1639,426
1	0,000	111,745	1639,526
1	0,000	111,745	1639,627
1	0,000	111,795	1639,828
1	0,000	111,795	1639,929
1	0,000	111,795	1640,030
1	0,000	111,795	1640,231
1	0,000	111,795	1640,433
1	0,000	111,845	1640,533
1	0,000	111,845	1640,735
1	0,000	111,845	1640,936
1	0,000	111,845	1641,138
1	0,000	111,845	1641,238
1	0,000	111,895	1641,339
1	0,000	111,895	1641,541
1	0,000	111,895	1641,742
1	0,000	111,895	1641,843
1	0,000	111,895	1641,943
1	0,000	111,945	1642,245
1	0,000	111,945	1642,245
1	0,000	111,945	1642,648
1	0,000	111,945	1642,749
1	0,000	111,945	1642,749
1	0,000	111,996	1643,051
1	0,000	111,996	1643,152
1	0,000	111,996	1643,253
1	0,000	111,996	1643,454
1	0,000	111,996	1643,555
1	0,000	112,046	1643,655
1	0,000	112,046	1643,756
1	0,000	112,046	1644,058
1	0,000	112,046	1644,260
1	0,000	112,046	1644,461
1	0,000	112,096	1644,562
1	0,000	112,096	1644,763
1	0,000	112,096	1644,864
1	0,000	112,096	1645,065
1	0,000	112,096	1645,267
1	0,000	112,146	1645,367
1	0,000	112,146	1645,468
1	0,000	112,146	1645,670
1	0,000	112,146	1645,770
1	0,000	112,146	1646,072
1	0,000	112,196	1646,173
1	0,000	112,196	1646,274
1	0,000	112,196	1646,475
1	0,000	112,196	1646,576
1	0,000	112,196	1646,677
1	0,000	112,246	1646,878
1	0,000	112,246	1647,079
1	0,000	112,246	1647,180
1	0,000	112,246	1647,583
1	0,000	112,246	1648,489
1	0,000	112,296	1647,684
1	0,000	112,296	1649,799
1	0,000	112,296	1648,087
1	0,000	112,296	1648,087
1	0,000	112,296	1648,288
1	0,000	112,347	1648,489
1	0,000	112,347	1648,389
1	0,000	112,347	1648,993
1	0,000	112,347	1649,094
1	0,000	112,347	1649,094
1	0,000	112,399	1649,295
1	0,000	112,399	1649,396
1	0,000	112,399	1649,799
1	0,000	112,399	1650,101
1	0,000	112,452	1650,201
1	0,000	112,452	1650,504
1	0,000	112,452	1650,504
1	0,000	112,452	1650,806
1	0,000	112,504	1650,906
1	0,000	112,504	1651,007
1	0,000	112,504	1651,208
1	0,000	112,504	1651,511
1	0,000	112,504	1651,611
1	0,000	112,557	1651,712
1	0,000	112,557	1651,913
1	0,000	112,557	1652,115
1	0,000	112,557	1652,216
1	0,000	112,557	1652,417
1	0,000	112,610	1652,518
1	0,000	112,610	1652,719
1	0,000	112,610	1653,122
1	0,000	112,663	1653,525
1	0,000	112,663	1653,625
1	0,000	112,663	1653,726
1	0,000	112,663	1653,928
1	0,000	112,663	1654,129
1	0,000	112,663	1654,230
1	0,000	112,715	1654,633
1	0,000	112,715	1654,633
1	0,000	112,715	1655,035
1	0,000	112,715	1655,136
1	0,000	112,768	1655,237
1	0,000	112,768	1655,338
1	0,000	112,768	1655,539
1	0,000	112,768	1655,740
1	0,000	112,768	1655,841
1	0,000	112,821	1656,244
1	0,000	112,821	1656,042
1	0,000	112,821	1656,546
1	0,000	112,821	1656,647
1	0,000	112,874	1656,747
1	0,000	112,874	1657,050
1	0,000	112,874	1657,150
1	0,000	112,874	1657,452
1	0,000	112,874	1657,654
1	0,000	112,927	1657,755
1	0,000	112,927	1657,956
1	0,000	112,927	1658,057
1	0,000	112,927	1658,157
1	0,000	112,927	1658,359
1	0,000	112,980	1658,560
1	0,000	112,980	1658,560
1	0,000	112,980	1659,064
1	0,000	112,980	1659,164
1	0,000	112,980	1659,366
1	0,000	113,034	1659,467
1	0,000	113,034	1659,668
1	0,000	113,034	1659,869
1	0,000	113,034	1660,071
1	0,000	113,087	1660,373
1	0,000	113,087	1660,474
1	0,000	113,087	1660,675
1	0,000	113,087	1660,776
1	0,000	113,087	1660,977
1	0,000	113,140	1661,078
1	0,000	113,140	1661,279
1	0,000	113,140	1661,581
1	0,000	113,193	1661,884
1	0,000	113,193	1661,783
1	0,000	113,193	1662,186
1	0,000	113,193	1662,387
1	0,000	113,193	1662,589
1	0,000	113,193	1662,790
1	0,000	113,244	1662,891
1	0,000	113,244	1663,092
1	0,000	113,244	1663,193
1	0,000	113,244	1663,293
1	0,000	113,295	1663,495
1	0,000	113,295	1663,696
1	0,000	113,295	1663,998
1	0,000	113,295	1664,401
1	0,000	113,347	1664,502
1	0,000	113,347	1664,703
1	0,000	113,347	1664,804
1	0,000	113,347	1665,106
1	0,000	113,347	1665,207
1	0,000	113,399	1665,308
1	0,000	113,399	1665,509
1	0,000	113,399	1665,610
1	0,000	113,399	1665,811
1	0,000	113,399	1666,013
1	0,000	113,451	1666,214
1	0,000	113,451	1666,415
1	0,000	113,451	1666,617
1	0,000	113,451	1666,718
1	0,000	113,503	1666,919
1	0,000	113,503	1667,020
1	0,000	113,503	1667,221
1	0,000	113,503	1667,422
1	0,000	113,503	1667,523
1	0,000	113,503	1667,825
1	0,000	113,556	1668,127
1	0,000	113,556	1668,228
1	0,000	113,556	1668,430
1	0,000	113,556	1668,530
1	0,000	113,609	1668,832
1	0,000	113,609	1669,034
1	0,000	113,609	1669,135
1	0,000	113,609	1669,336
1	0,000	113,661	1669,537
1	0,000	113,661	1669,739
1	0,000	113,661	1669,839
1	0,000	113,661	1670,041
1	0,000	113,661	1670,142
1	0,000	113,714	1670,242
1	0,000	113,714	1670,544
1	0,000	113,714	1670,847
1	0,000	113,714	1670,947
1	0,000	113,714	1671,149
1	0,000	113,767	1671,249
1	0,000	113,767	1671,451
1	0,000	113,767	1671,652
1	0,000	113,767	1671,753
1	0,000	113,767	1672,055
1	0,000	113,820	1672,458
1	0,000	113,820	1672,659
1	0,000	113,820	1672,760
1	0,000	113,820	1672,861
1	0,000	113,873	1673,062
1	0,000	113,873	1673,264
1	0,000	113,873	1673,465
1	0,000	113,873	1673,767
1	0,000	113,926	1673,969
1	0,000	113,926	1674,069
1	0,000	113,926	1674,271
1	0,000	113,926	1674,371
1	0,000	113,926	1674,573
1	0,000	113,978	1674,673
1	0,000	113,978	1674,976
1	0,000	113,978	1675,076
1	0,000	113,978	1675,278
1	0,000	113,978	1675,378
1	0,000	114,029	1675,278
1	0,000	114,029	1675,580
1	0,000	114,029	1676,083
1	0,000	114,029	1676,285
1	0,000	114,082	1676,385
1	0,000	114,082	1676,587
1	0,000	114,082	1676,788
1	0,000	114,082	1676,990
1	0,000	114,082	1677,090
1	0,000	114,134	1677,191
1	0,000	114,134	1677,393
1	0,000	114,134	1677,695
1	0,000	114,134	1677,896
1	0,000	114,134	1677,997
1	0,000	114,188	1678,098
1	0,000	114,188	1678,299
1	0,000	114,188	1678,500
1	0,000	114,188	1678,601
1	0,000	114,188	1679,004
1	0,000	114,240	1679,306
1	0,000	114,240	1679,407
1	0,000	114,240	1679,507
1	0,000	114,240	1679,608
1	0,000	114,240	1679,910
1	0,000	114,293	1680,212
1	0,000	114,293	1680,212
1	0,000	114,293	1680,313
1	0,000	114,293	1680,515
1	0,000	114,346	1680,917
1	0,000	114,346	1681,018
1	0,000	114,346	1681,119
1	0,000	114,346	1681,320
1	0,000	114,346	1681,522
1	0,000	114,398	1681,622
1	0,000	114,398	1681,824
1	0,000	114,398	1682,126
1	0,000	114,398	1682,227
1	0,000	114,398	1682,327
1	0,000	114,450	1682,629
1	0,000	114,450	1682,932
1	0,000	114,450	1683,032
1	0,000	114,503	1683,133
1	0,000	114,503	1683,435
1	0,000	114,503	1683,636
1	0,000	114,503	1683,737
1	0,000	114,503	1684,039
1	0,000	114,556	1684,241
1	0,000	114,556	1684,442
1	0,000	114,556	1684,543
1	0,000	114,556	1684,744
1	0,000	114,556	1684,946
1	0,000	114,608	1685,046
1	0,000	114,608	1685,248
1	0,000	114,608	1685,449
1	0,000	114,608	1685,852
1	0,000	114,661	1686,154
1	0,000	114,661	1686,356
1	0,000	114,661	1686,053
1	0,000	114,661	1686,557
1	0,000	114,661	1686,758
1	0,000	114,713	1686,960
1	0,000	114,713	1687,061
1	0,000	114,713	1687,262
1	0,000	114,713	1687,665
1	0,000	114,766	1687,766
1	0,000	114,766	1687,967
1	0,000	114,766	1688,068
1	0,000	114,766	1688,269
1	0,000	114,766	1688,470
1	0,000	114,819	1688,672
1	0,000	114,819	1689,075
1	0,000	114,819	1689,276
1	0,000	114,819	1689,075
1	0,000	114,872	1689,578
1	0,000	114,872	1689,679
1	0,000	114,872	1689,780
1	0,000	114,872	1689,981
1	0,000	114,872	1690,182
1	0,000	114,925	1690,485
1	0,000	114,925	1690,787
1	0,000	114,925	1690,988
1	0,000	114,925	1691,089
1	0,000	114,976	1691,290
1	0,000	114,976	1691,391
1	0,000	114,976	1691,592
1	0,000	114,976	1691,895
1	0,000	114,976	1691,995
1	0,000	115,028	1692,197
1	0,000	115,028	1692,297
1	0,000	115,028	1692,398
1	0,000	115,028	1692,700
1	0,000	115,028	1692,902
1	0,000	115,080	1693,204
1	0,000	115,080	1693,405
1	0,000	115,080	1693,607
1	0,000	115,080	1693,607
1	0,000	115,133	1693,808
1	0,000	115,133	1694,009
1	0,000	115,133	1693,909
1	0,000	115,133	1694,211
1	0,000	115,133	1694,513
1	0,000	115,185	1694,916
1	0,000	115,185	1695,016
1	0,000	115,185	1695,218
1	0,000	115,185	1695,319
1	0,000	115,185	1695,419
1	0,000	115,238	1695,621
1	0,000	115,238	1695,822
1	0,000	115,238	1696,024
1	0,000	115,238	1696,225
1	0,000	115,238	1696,527
1	0,000	115,290	1696,829
1	0,000	115,290	1696,829
1	0,000	115,290	1697,333
1	0,000	115,343	1697,433
1	0,000	115,343	1697,635
1	0,000	115,343	1697,836
1	0,000	115,343	1698,038
1	0,000	115,343	1698,239
1	0,000	115,396	1698,441
1	0,000	115,396	1698,541
1	0,000	115,396	1698,743
1	0,000	115,396	1698,843
1	0,000	115,396	1699,045
1	0,000	115,449	1699,246
1	0,000	115,449	1699,347
1	0,000	115,449	1699,850
1	0,000	115,449	1699,951
1	0,000	115,502	1700,052
1	0,000	115,502	1700,153
1	0,000	115,502	1700,354
1	0,000	115,502	1700,555
1	0,000	115,502	1700,757
1	0,000	115,502	1701,059
1	0,000	115,555	1701,260
1	0,000	115,555	1701,361
1	0,000	115,555	1701,562
1	0,000	115,555	1701,663
1	0,000	115,608	1701,865
1	0,000	115,608	1701,764
1	0,000	115,608	1702,570
1	0,000	115,608	1702,570
1	0,000	115,661	1702,872
1	0,000	115,661	1702,972
1	0,000	115,661	1703,174
1	0,000	115,661	1703,275
1	0,000	115,661	1703,677
1	0,000	115,712	1703,778
1	0,000	115,712	1703,879
1	0,000	115,712	1704,080
1	0,000	115,712	1704,181
1	0,000	115,712	1704,382
1	0,000	115,765	1704,584
1	0,000	115,765	1704,886
1	0,000	115,765	1704,987
1	0,000	115,765	1705,188
1	0,000	115,765	1705,289
1	0,000	115,817	1705,490
1	0,000	115,817	1705,692
1	0,000	115,817	1705,792
1	0,000	115,817	1705,994
1	0,000	115,817	1706,094
1	0,000	115,869	1706,497
1	0,000	115,869	1706,598
1	0,000	115,869	1706,799
1	0,000	115,869	1707,001
1	0,000	115,921	1707,202
1	0,000	115,921	1707,303
1	0,000	115,921	1707,504
1	0,000	115,921	1707,706
1	0,000	115,921	1707,806
1	0,000	115,974	1708,008
1	0,000	115,974	1708,310
1	0,000	115,974	1708,511
1	0,000	115,974	1708,713
1	0,000	115,974	1708,813
1	0,000	116,027	1709,015
1	0,000	116,027	1709,216
1	0,000	116,027	1709,418
1	0,000	116,027	1709,418
1	0,000	116,027	1709,720
1	0,000	116,079	1710,022
1	0,000	116,079	1710,324
1	0,000	116,079	1710,324
1	0,000	116,079	1710,526
1	0,000	116,131	1710,727
1	0,000	116,131	1710,828
1	0,000	116,131	1711,029
1	0,000	116,131	1711,230
1	0,000	116,131	1711,432
1	0,000	116,183	1711,633
1	0,000	116,183	1711,734
1	0,000	116,183	1711,935
1	0,000	116,183	1712,238
1	0,000	116,235	1712,640
1	0,000	116,235	1712,741
1	0,000	116,235	1712,943
1	0,000	116,235	1713,144
1	0,000	116,235	1713,245
1	0,000	116,287	1713,446
1	0,000	116,287	1713,647
1	0,000	116,287	1713,849
1	0,000	116,287	1714,050
1	0,000	116,287	1714,151
1	0,000	116,338	1714,352
1	0,000	116,338	1714,554
1	0,000	116,338	1714,957
1	0,000	116,338	1715,158
1	0,000	116,389	1715,259
1	0,000	116,389	1714,856
1	0,000	116,389	1716,165
1	0,000	116,389	1715,762
1	0,000	116,389	1715,863
1	0,000	116,440	1715,863
1	0,000	116,440	1716,266
1	0,000	116,440	1716,367
1	0,000	116,440	1716,568
1	0,000	116,440	1716,669
1	0,000	116,440	1716,870
1	0,000	116,491	1717,072
1	0,000	116,491	1717,273
1	0,000	116,491	1717,374
1	0,000	116,491	1717,575
1	0,000	116,543	1717,776
1	0,000	116,543	1717,877
1	0,000	116,543	1718,079
1	0,000	116,543	1718,280
1	0,000	116,543	1718,481
1	0,000	116,593	1718,683
1	0,000	116,593	1718,784
1	0,000	116,593	1718,985
1	0,000	116,593	1719,388
1	0,000	116,593	1719,489
1	0,000	116,645	1719,791
1	0,000	116,645	1719,891
1	0,000	116,645	1719,992
1	0,000	116,645	1720,193
1	0,000	116,698	1720,496
1	0,000	116,698	1720,798
1	0,000	116,698	1720,999
1	0,000	116,698	1721,100
1	0,000	116,698	1721,201
1	0,000	116,749	1721,402
1	0,000	116,749	1721,503
1	0,000	116,749	1721,704
1	0,000	116,749	1721,906
1	0,000	116,749	1722,107
1	0,000	116,749	1722,308
1	0,000	116,802	1722,510
1	0,000	116,802	1722,610
1	0,000	116,802	1722,812
1	0,000	116,802	1723,114
1	0,000	116,855	1723,315
1	0,000	116,855	1723,517
1	0,000	116,855	1723,618
1	0,000	116,855	1723,819
1	0,000	116,855	1724,020
1	0,000	116,907	1724,222
1	0,000	116,907	1724,323
1	0,000	116,907	1724,524
1	0,000	116,907	1724,826
1	0,000	116,961	1725,027
1	0,000	116,961	1725,128
1	0,000	116,961	1725,330
1	0,000	116,961	1725,531
1	0,000	116,961	1725,632
1	0,000	117,013	1726,035
1	0,000	117,013	1726,135
1	0,000	117,013	1726,236
1	0,000	117,013	1726,337
1	0,000	117,013	1726,740
1	0,000	117,066	1726,941
1	0,000	117,066	1727,142
1	0,000	117,066	1727,243
1	0,000	117,066	1727,444
1	0,000	117,066	1727,646
1	0,000	117,119	1727,948
1	0,000	117,119	1728,149
1	0,000	117,119	1728,452
1	0,000	117,119	1728,552
1	0,000	117,171	1728,754
1	0,000	117,171	1728,854
1	0,000	117,171	1728,955
1	0,000	117,171	1729,156
1	0,000	117,171	1729,358
1	0,000	117,224	1729,559
1	0,000	117,224	1729,861
1	0,000	117,224	1730,063
1	0,000	117,224	1730,264
1	0,000	117,224	1730,466
1	0,000	117,277	1730,667
1	0,000	117,277	1730,969
1	0,000	117,277	1731,372
1	0,000	117,277	1731,473
1	0,000	117,331	1731,573
1	0,000	117,331	1731,876
1	0,000	117,331	1732,077
1	0,000	117,331	1732,178
1	0,000	117,383	1732,379
1	0,000	117,383	1732,782
1	0,000	117,383	1732,681
1	0,000	117,383	1733,286
1	0,000	117,436	1733,386
1	0,000	117,436	1733,588
1	0,000	117,436	1733,789
1	0,000	117,436	1733,990
1	0,000	117,436	1734,192
1	0,000	117,488	1734,293
1	0,000	117,488	1734,695
1	0,000	117,488	1734,897
1	0,000	117,488	1735,098
1	0,000	117,488	1735,199
1	0,000	117,542	1735,300
1	0,000	117,542	1735,501
1	0,000	117,542	1735,803
1	0,000	117,542	1736,105
1	0,000	117,594	1736,307
1	0,000	117,594	1736,508
1	0,000	117,594	1736,710
1	0,000	117,594	1736,911
1	0,000	117,594	1737,112
1	0,000	117,646	1737,213
1	0,000	117,646	1737,314
1	0,000	117,646	1737,515
1	0,000	117,646	1737,918
1	0,000	117,700	1738,120
1	0,000	117,700	1738,522
1	0,000	117,700	1738,623
1	0,000	117,700	1738,724
1	0,000	117,700	1739,026
1	0,000	117,753	1739,227
1	0,000	117,753	1739,529
1	0,000	117,753	1739,731
1	0,000	117,753	1739,932
1	0,000	117,806	1740,033
1	0,000	117,806	1740,234
1	0,000	117,806	1740,436
1	0,000	117,806	1740,637
1	0,000	117,806	1740,738
1	0,000	117,858	1741,040
1	0,000	117,858	1741,241
1	0,000	117,858	1741,342
1	0,000	117,858	1741,644
1	0,000	117,909	1742,047
1	0,000	117,909	1742,249
1	0,000	117,909	1742,349
1	0,000	117,909	1742,551
1	0,000	117,909	1742,752
1	0,000	117,960	1742,853
1	0,000	117,960	1743,155
1	0,000	117,960	1743,457
1	0,000	117,960	1743,558
1	0,000	118,011	1743,658
1	0,000	118,011	1743,759
1	0,000	118,011	1743,961
1	0,000	118,011	1744,162
1	0,000	118,011	1744,363
1	0,000	118,011	1744,565
1	0,000	118,063	1744,666
1	0,000	118,063	1745,068
1	0,000	118,063	1745,370
1	0,000	118,063	1745,471
1	0,000	118,115	1745,673
1	0,000	118,115	1745,975
1	0,000	118,115	1745,975
1	0,000	118,115	1746,176
1	0,000	118,115	1746,378
1	0,000	118,169	1746,780
1	0,000	118,169	1746,881
1	0,000	118,169	1747,083
1	0,000	118,169	1747,183
1	0,000	118,221	1747,485
1	0,000	118,221	1747,586
1	0,000	118,221	1747,787
1	0,000	118,221	1748,090
1	0,000	118,221	1748,291
1	0,000	118,221	1748,492
1	0,000	118,274	1748,694
1	0,000	118,274	1748,996
1	0,000	118,274	1749,197
1	0,000	118,274	1749,399
1	0,000	118,326	1749,399
1	0,000	118,326	1749,701
1	0,000	118,326	1750,104
1	0,000	118,326	1750,204
1	0,000	118,380	1750,305
1	0,000	118,380	1750,507
1	0,000	118,380	1750,809
1	0,000	118,380	1750,909
1	0,000	118,380	1751,312
1	0,000	118,432	1751,413
1	0,000	118,432	1751,614
1	0,000	118,432	1751,816
1	0,000	118,432	1751,917
1	0,000	118,432	1751,816
1	0,000	118,485	1752,420
1	0,000	118,485	1752,521
1	0,000	118,485	1752,722
1	0,000	118,485	1752,924
1	0,000	118,485	1753,125
1	0,000	118,538	1753,427
1	0,000	118,538	1753,629
1	0,000	118,538	1754,031
1	0,000	118,538	1754,132
1	0,000	118,591	1754,333
1	0,000	118,591	1754,535
1	0,000	118,591	1754,636
1	0,000	118,591	1755,038
1	0,000	118,644	1755,240
1	0,000	118,644	1755,542
1	0,000	118,644	1755,844
1	0,000	118,644	1755,743
1	0,000	118,644	1755,844
1	0,000	118,697	1755,844
1	0,000	118,697	1756,448
1	0,000	118,697	1756,650
1	0,000	118,697	1756,750
1	0,000	118,751	1757,053
1	0,000	118,751	1757,153
1	0,000	118,751	1757,355
1	0,000	118,751	1757,556
1	0,000	118,751	1757,959
1	0,000	118,804	1758,060
1	0,000	118,804	1758,261
1	0,000	118,804	1758,463
1	0,000	118,804	1758,463
1	0,000	118,804	1758,765
1	0,000	118,858	1759,167
1	0,000	118,858	1759,570
1	0,000	118,858	1759,671
1	0,000	118,858	1759,872
1	0,000	118,911	1760,074
1	0,000	118,911	1760,275
1	0,000	118,911	1760,477
1	0,000	118,911	1760,779
1	0,000	118,963	1760,980
1	0,000	118,963	1761,182
1	0,000	118,963	1761,383
1	0,000	118,963	1761,383
1	0,000	118,963	1761,887
1	0,000	119,016	1761,887
1	0,000	119,016	1762,088
1	0,000	119,016	1762,289
1	0,000	119,016	1762,793
1	0,000	119,069	1762,894
1	0,000	119,069	1763,095
1	0,000	119,069	1763,095
1	0,000	119,069	1763,297
1	0,000	119,069	1763,498
1	0,000	119,121	1763,800
1	0,000	119,121	1764,001
1	0,000	119,121	1764,102
1	0,000	119,121	1764,304
1	0,000	119,121	1764,404
1	0,000	119,173	1764,807
1	0,000	119,173	1765,009
1	0,000	119,173	1765,311
1	0,000	119,173	1765,411
1	0,000	119,173	1765,311
1	0,000	119,226	1765,814
1	0,000	119,226	1765,915
1	0,000	119,226	1766,217
1	0,000	119,226	1766,418
1	0,000	119,279	1766,721
1	0,000	119,279	1766,821
1	0,000	119,279	1767,023
1	0,000	119,279	1767,023
1	0,000	119,279	1767,426
1	0,000	119,332	1767,627
1	0,000	119,332	1767,728
1	0,000	119,332	1768,130
1	0,000	119,332	1768,332
1	0,000	119,332	1768,634
1	0,000	119,385	1768,735
1	0,000	119,385	1768,936
1	0,000	119,385	1769,037
1	0,000	119,385	1769,339
1	0,000	119,385	1769,440
1	0,000	119,436	1769,641
1	0,000	119,436	1769,843
1	0,000	119,436	1770,245
1	0,000	119,436	1770,346
1	0,000	119,436	1770,547
1	0,000	119,490	1770,749
1	0,000	119,490	1770,950
1	0,000	119,490	1771,051
1	0,000	119,490	1771,152
1	0,000	119,541	1771,454
1	0,000	119,541	1771,655
1	0,000	119,541	1771,857
1	0,000	119,541	1771,957
1	0,000	119,541	1772,159
1	0,000	119,592	1772,662
1	0,000	119,592	1772,763
1	0,000	119,592	1772,964
1	0,000	119,592	1773,166
1	0,000	119,592	1773,267
1	0,000	119,643	1773,468
1	0,000	119,643	1773,669
1	0,000	119,643	1773,871
1	0,000	119,643	1774,072
1	0,000	119,643	1774,274
1	0,000	119,694	1774,475
1	0,000	119,694	1774,576
1	0,000	119,694	1774,777
1	0,000	119,694	1774,979
1	0,000	119,694	1775,079
1	0,000	119,745	1775,180
1	0,000	119,745	1775,482
1	0,000	119,745	1775,684
1	0,000	119,745	1775,885
1	0,000	119,745	1776,086
1	0,000	119,797	1776,187
1	0,000	119,797	1776,389
1	0,000	119,797	1776,791
1	0,000	119,797	1777,194
1	0,000	119,848	1777,396
1	0,000	119,848	1777,496
1	0,000	119,848	1777,698
1	0,000	119,848	1777,899
1	0,000	119,900	1778,101
1	0,000	119,900	1778,302
1	0,000	119,900	1778,503
1	0,000	119,900	1778,806
1	0,000	119,900	1779,007
1	0,000	119,952	1779,007
1	0,000	119,952	1779,410
1	0,000	119,952	1779,813
1	0,000	119,952	1779,913
1	0,000	120,004	1780,115
1	0,000	120,004	1780,316
1	0,000	120,004	1780,518
1	0,000	120,004	1780,719
1	0,000	120,004	1780,920
1	0,000	120,057	1781,323
1	0,000	120,057	1781,424
1	0,000	120,057	1781,726
1	0,000	120,057	1781,827
1	0,000	120,110	1782,028
1	0,000	120,110	1782,230
1	0,000	120,110	1782,330
1	0,000	120,110	1782,532
1	0,000	120,110	1782,935
1	0,000	120,163	1783,337
1	0,000	120,163	1783,438
1	0,000	120,163	1783,640
1	0,000	120,163	1783,841
1	0,000	120,217	1784,042
1	0,000	120,217	1784,445
1	0,000	120,217	1784,647
1	0,000	120,217	1784,747
1	0,000	120,270	1785,049
1	0,000	120,270	1785,150
1	0,000	120,270	1785,352
1	0,000	120,270	1785,352
1	0,000	120,270	1785,956
1	0,000	120,322	1785,956
1	0,000	120,322	1786,359
1	0,000	120,322	1786,661
1	0,000	120,322	1786,761
1	0,000	120,375	1787,064
1	0,000	120,375	1787,265
1	0,000	120,375	1787,466
1	0,000	120,375	1787,567
1	0,000	120,375	1787,869
1	0,000	120,426	1787,970
1	0,000	120,426	1788,171
1	0,000	120,426	1788,474
1	0,000	120,426	1788,776
1	0,000	120,478	1788,977
1	0,000	120,478	1789,178
1	0,000	120,478	1789,279
1	0,000	120,478	1789,581
1	0,000	120,478	1789,783
1	0,000	120,478	1789,883
1	0,000	120,530	1790,186
1	0,000	120,530	1790,286
1	0,000	120,530	1790,387
1	0,000	120,530	1790,891
1	0,000	120,583	1791,092
1	0,000	120,583	1791,193
1	0,000	120,583	1791,394
1	0,000	120,583	1791,495
1	0,000	120,583	1791,797
1	0,000	120,635	1792,099
1	0,000	120,635	1792,099
1	0,000	120,635	1792,502
1	0,000	120,635	1792,703
1	0,000	120,688	1792,905
1	0,000	120,688	1792,905
1	0,000	120,688	1793,307
1	0,000	120,688	1793,408
1	0,000	120,688	1793,710
1	0,000	120,688	1793,912
1	0,000	120,741	1794,012
1	0,000	120,741	1794,415
1	0,000	120,741	1794,617
1	0,000	120,741	1794,717
1	0,000	120,794	1795,020
1	0,000	120,794	1795,120
1	0,000	120,794	1795,322
1	0,000	120,794	1795,523
1	0,000	120,794	1795,724
1	0,000	120,847	1795,926
1	0,000	120,847	1796,329
1	0,000	120,847	1796,732
1	0,000	120,898	1796,832
1	0,000	120,898	1797,034
1	0,000	120,898	1797,235
1	0,000	120,898	1797,437
1	0,000	120,898	1797,537
1	0,000	120,950	1797,739
1	0,000	120,950	1798,041
1	0,000	120,950	1798,141
1	0,000	120,950	1798,544
1	0,000	120,950	1798,746
1	0,000	121,002	1798,846
1	0,000	121,002	1799,048
1	0,000	121,002	1799,249
1	0,000	121,002	1799,551
1	0,000	121,002	1799,753
1	0,000	121,054	1799,854
1	0,000	121,054	1800,055
1	0,000	121,054	1800,256
1	0,000	121,054	1800,458
1	0,000	121,054	1800,659
1	0,000	121,107	1800,961
1	0,000	121,107	1801,364
1	0,000	121,107	1801,566
1	0,000	121,107	1801,868
1	0,000	121,159	1801,968
1	0,000	121,159	1802,170
1	0,000	121,159	1802,271
1	0,000	121,159	1802,774
1	0,000	121,213	1802,975
1	0,000	121,213	1802,975
1	0,000	121,213	1803,278
1	0,000	121,213	1803,580
1	0,000	121,213	1803,680
1	0,000	121,266	1803,882
1	0,000	121,266	1804,184
1	0,000	121,266	1804,587
1	0,000	121,319	1804,687
1	0,000	121,319	1804,990
1	0,000	121,319	1805,292
1	0,000	121,319	1805,392
1	0,000	121,319	1805,594
1	0,000	121,372	1805,896
1	0,000	121,372	1806,400
1	0,000	121,372	1806,601
1	0,000	121,372	1806,802
1	0,000	121,424	1807,004
1	0,000	121,424	1807,205
1	0,000	121,424	1807,306
1	0,000	121,424	1807,507
1	0,000	121,424	1807,910
1	0,000	121,478	1808,112
1	0,000	121,478	1808,212
1	0,000	121,478	1808,414
1	0,000	121,478	1808,615
1	0,000	121,531	1808,817
1	0,000	121,531	1809,219
1	0,000	121,531	1809,521
1	0,000	121,531	1809,824
1	0,000	121,584	1809,924
1	0,000	121,584	1810,126
1	0,000	121,584	1810,327
1	0,000	121,584	1810,730
1	0,000	121,637	1811,032
1	0,000	121,637	1811,133
1	0,000	121,637	1811,234
1	0,000	121,637	1811,435
1	0,000	121,637	1811,636
1	0,000	121,690	1811,938
1	0,000	121,690	1811,938
1	0,000	121,690	1812,341
1	0,000	121,690	1812,341
1	0,000	121,690	1812,946
1	0,000	121,743	1813,046
1	0,000	121,743	1813,248
1	0,000	121,743	1813,348
1	0,000	121,743	1813,651
1	0,000	121,743	1813,751
1	0,000	121,796	1813,852
1	0,000	121,796	1814,456
1	0,000	121,796	1814,557
1	0,000	121,796	1814,758
1	0,000	121,850	1815,060
1	0,000	121,850	1815,363
1	0,000	121,850	1815,262
1	0,000	121,850	1815,564
1	0,000	121,850	1815,967
1	0,000	121,903	1816,168
1	0,000	121,903	1816,269
1	0,000	121,903	1816,470
1	0,000	121,903	1816,571
1	0,000	121,903	1816,974
1	0,000	121,955	1817,075
1	0,000	121,955	1817,075
1	0,000	121,955	1817,679
1	0,000	121,955	1817,880
1	0,000	122,009	1817,981
1	0,000	122,009	1818,283
1	0,000	122,009	1818,384
1	0,000	122,009	1818,585
1	0,000	122,009	1818,787
1	0,000	122,061	1818,988
1	0,000	122,061	1819,391
1	0,000	122,061	1819,693
1	0,000	122,061	1819,794
1	0,000	122,061	1820,096
1	0,000	122,114	1820,297
1	0,000	122,114	1820,599
1	0,000	122,114	1820,801
1	0,000	122,114	1820,700
1	0,000	122,114	1821,002
1	0,000	122,167	1821,405
1	0,000	122,167	1821,606
1	0,000	122,167	1821,707
1	0,000	122,167	1822,009
1	0,000	122,219	1822,110
1	0,000	122,219	1822,311
1	0,000	122,219	1822,513
1	0,000	122,219	1822,714
1	0,000	122,219	1822,916
1	0,000	122,270	1823,016
1	0,000	122,270	1823,218
1	0,000	122,270	1823,218
1	0,000	122,270	1823,621
1	0,000	122,270	1823,923
1	0,000	122,321	1824,326
1	0,000	122,321	1824,527
1	0,000	122,321	1824,628
1	0,000	122,321	1824,829
1	0,000	122,321	1825,131
1	0,000	122,373	1825,333
1	0,000	122,373	1825,534
1	0,000	122,373	1825,635
1	0,000	122,373	1825,836
1	0,000	122,373	1826,038
1	0,000	122,424	1826,239
1	0,000	122,424	1826,440
1	0,000	122,424	1826,541
1	0,000	122,424	1826,843
1	0,000	122,424	1826,944
1	0,000	122,475	1827,145
1	0,000	122,475	1827,347
1	0,000	122,475	1827,649
1	0,000	122,475	1827,951
1	0,000	122,527	1828,354
1	0,000	122,527	1828,555
1	0,000	122,527	1828,757
1	0,000	122,527	1828,958
1	0,000	122,579	1829,160
1	0,000	122,579	1829,361
1	0,000	122,579	1829,562
1	0,000	122,579	1829,764
1	0,000	122,579	1829,865
1	0,000	122,630	1830,167
1	0,000	122,630	1830,267
1	0,000	122,630	1830,469
1	0,000	122,630	1830,771
1	0,000	122,630	1830,972
1	0,000	122,681	1831,274
1	0,000	122,681	1831,476
1	0,000	122,681	1831,677
1	0,000	122,681	1831,979
1	0,000	122,681	1832,080
1	0,000	122,733	1832,483
1	0,000	122,733	1832,483
1	0,000	122,733	1832,785
1	0,000	122,733	1832,886
1	0,000	122,733	1833,087
1	0,000	122,785	1833,289
1	0,000	122,785	1833,490
1	0,000	122,785	1833,792
1	0,000	122,785	1833,994
1	0,000	122,838	1834,296
1	0,000	122,838	1834,497
1	0,000	122,838	1834,698
1	0,000	122,838	1834,900
1	0,000	122,838	1835,202
1	0,000	122,890	1835,303
1	0,000	122,890	1835,605
1	0,000	122,890	1835,806
1	0,000	122,890	1836,108
1	0,000	122,890	1836,209
1	0,000	122,943	1836,411
1	0,000	122,943	1836,612
1	0,000	122,943	1836,813
1	0,000	122,943	1837,015
1	0,000	122,943	1837,418
1	0,000	122,996	1837,619
1	0,000	122,996	1837,820
1	0,000	122,996	1838,022
1	0,000	122,996	1838,223
1	0,000	123,049	1838,425
1	0,000	123,049	1838,626
1	0,000	123,049	1838,828
1	0,000	123,049	1838,928
1	0,000	123,049	1839,331
1	0,000	123,103	1839,532
1	0,000	123,103	1839,734
1	0,000	123,103	1840,036
1	0,000	123,103	1840,237
1	0,000	123,103	1840,338
1	0,000	123,155	1840,540
1	0,000	123,155	1840,439
1	0,000	123,155	1841,144
1	0,000	123,155	1841,345
1	0,000	123,208	1841,547
1	0,000	123,208	1841,748
1	0,000	123,208	1841,949
1	0,000	123,208	1842,151
1	0,000	123,208	1842,352
1	0,000	123,260	1842,453
1	0,000	123,260	1842,755
1	0,000	123,260	1842,755
1	0,000	123,260	1843,561
1	0,000	123,260	1843,460
1	0,000	123,313	1843,762
1	0,000	123,313	1843,964
1	0,000	123,313	1844,165
1	0,000	123,313	1844,366
1	0,000	123,313	1844,467
1	0,000	123,363	1844,366
1	0,000	123,363	1844,971
1	0,000	123,363	1845,172
1	0,000	123,363	1845,374
1	0,000	123,363	1845,575
1	0,000	123,415	1845,978
1	0,000	123,415	1846,179
1	0,000	123,415	1846,280
1	0,000	123,415	1846,582
1	0,000	123,415	1846,783
1	0,000	123,467	1846,985
1	0,000	123,467	1847,186
1	0,000	123,467	1847,388
1	0,000	123,467	1847,388
1	0,000	123,521	1847,791
1	0,000	123,521	1848,093
1	0,000	123,521	1848,294
1	0,000	123,521	1848,495
1	0,000	123,521	1848,798
1	0,000	123,572	1848,898
1	0,000	123,572	1849,200
1	0,000	123,572	1849,402
1	0,000	123,572	1849,603
1	0,000	123,572	1849,805
1	0,000	123,624	1849,905
1	0,000	123,624	1850,107
1	0,000	123,624	1850,308
1	0,000	123,624	1850,711
1	0,000	123,677	1850,912
1	0,000	123,677	1851,013
1	0,000	123,677	1851,315
1	0,000	123,677	1851,416
1	0,000	123,677	1851,617
1	0,000	123,729	1851,920
1	0,000	123,729	1852,121
1	0,000	123,729	1852,322
1	0,000	123,729	1852,524
1	0,000	123,729	1852,927
1	0,000	123,781	1853,027
1	0,000	123,781	1853,329
1	0,000	123,781	1853,531
1	0,000	123,781	1853,732
1	0,000	123,781	1853,833
1	0,000	123,834	1854,135
1	0,000	123,834	1854,337
1	0,000	123,834	1854,639
1	0,000	123,834	1854,840
1	0,000	123,886	1855,042
1	0,000	123,886	1855,243
1	0,000	123,886	1855,444
1	0,000	123,886	1855,746
1	0,000	123,886	1855,847
1	0,000	123,937	1856,149
1	0,000	123,937	1856,351
1	0,000	123,937	1856,451
1	0,000	123,937	1856,653
1	0,000	123,937	1856,955
1	0,000	123,937	1857,056
1	0,000	123,990	1857,257
1	0,000	123,990	1857,660
1	0,000	123,990	1858,063
1	0,000	124,043	1858,063
1	0,000	124,043	1858,566
1	0,000	124,043	1858,667
1	0,000	124,043	1858,969
1	0,000	124,043	1859,070
1	0,000	124,095	1859,573
1	0,000	124,095	1859,674
1	0,000	124,095	1859,875
1	0,000	124,095	1859,976
1	0,000	124,148	1860,379
1	0,000	124,148	1860,480
1	0,000	124,148	1860,883
1	0,000	124,148	1860,883
1	0,000	124,148	1861,386
1	0,000	124,201	1861,688
1	0,000	124,201	1861,990
1	0,000	124,201	1861,890
1	0,000	124,201	1862,393
1	0,000	124,254	1862,494
1	0,000	124,254	1862,897
1	0,000	124,254	1863,098
1	0,000	124,254	1863,400
1	0,000	124,307	1863,501
1	0,000	124,307	1863,702
1	0,000	124,307	1863,904
1	0,000	124,307	1864,105
1	0,000	124,307	1864,307
1	0,000	124,360	1864,709
1	0,000	124,360	1864,911
1	0,000	124,360	1865,112
1	0,000	124,360	1865,314
1	0,000	124,360	1865,616
1	0,000	124,412	1865,817
1	0,000	124,412	1866,019
1	0,000	124,412	1866,119
1	0,000	124,412	1866,321
1	0,000	124,412	1866,522
1	0,000	124,465	1866,623
1	0,000	124,465	1867,126
1	0,000	124,465	1867,529
1	0,000	124,465	1867,731
1	0,000	124,519	1867,932
1	0,000	124,519	1868,134
1	0,000	124,519	1868,335
1	0,000	124,519	1868,536
1	0,000	124,519	1868,738
1	0,000	124,570	1868,939
1	0,000	124,570	1869,141
1	0,000	124,570	1869,342
1	0,000	124,570	1869,543
1	0,000	124,570	1869,846
1	0,000	124,622	1870,047
1	0,000	124,622	1870,148
1	0,000	124,622	1870,349
1	0,000	124,622	1870,450
1	0,000	124,622	1870,551
1	0,000	124,675	1871,054
1	0,000	124,675	1871,356
1	0,000	124,675	1871,759
1	0,000	124,727	1872,061
1	0,000	124,727	1872,263
1	0,000	124,727	1872,363
1	0,000	124,727	1872,665
1	0,000	124,727	1872,867
1	0,000	124,779	1872,968
1	0,000	124,779	1873,169
1	0,000	124,779	1873,370
1	0,000	124,779	1873,572
1	0,000	124,779	1873,975
1	0,000	124,831	1874,176
1	0,000	124,831	1874,277
1	0,000	124,831	1874,579
1	0,000	124,831	1874,780
1	0,000	124,831	1874,881
1	0,000	124,883	1875,183
1	0,000	124,883	1875,385
1	0,000	124,883	1875,687
1	0,000	124,883	1875,787
1	0,000	124,883	1876,089
1	0,000	124,934	1876,190
1	0,000	124,934	1876,593
1	0,000	124,934	1876,794
1	0,000	124,934	1877,097
1	0,000	124,987	1877,197
1	0,000	124,987	1877,600
1	0,000	124,987	1877,701
1	0,000	124,987	1877,802
1	0,000	124,987	1878,104
1	0,000	124,987	1878,406
1	0,000	125,040	1878,506
1	0,000	125,040	1878,809
1	0,000	125,040	1879,111
1	0,000	125,040	1879,312
1	0,000	125,092	1879,514
1	0,000	125,092	1879,715
1	0,000	125,092	1879,916
1	0,000	125,092	1880,118
1	0,000	125,146	1880,420
1	0,000	125,146	1880,722
1	0,000	125,146	1880,823
1	0,000	125,146	1881,125
1	0,000	125,146	1881,427
1	0,000	125,200	1881,427
1	0,000	125,200	1882,031
1	0,000	125,200	1882,132
1	0,000	125,200	1882,333
1	0,000	125,200	1882,535
1	0,000	125,251	1882,837
1	0,000	125,251	1882,938
1	0,000	125,251	1883,139
1	0,000	125,251	1883,340
1	0,000	125,251	1883,542
1	0,000	125,304	1883,743
1	0,000	125,304	1884,045
1	0,000	125,304	1884,247
1	0,000	125,304	1884,851
1	0,000	125,357	1885,052
1	0,000	125,357	1885,153
1	0,000	125,357	1885,455
1	0,000	125,357	1885,657
1	0,000	125,411	1886,261
1	0,000	125,411	1886,664
1	0,000	125,411	1886,865
1	0,000	125,411	1887,067
1	0,000	125,462	1887,268
1	0,000	125,462	1887,469
1	0,000	125,462	1887,671
1	0,000	125,462	1887,872
1	0,000	125,462	1888,074
1	0,000	125,515	1888,577
1	0,000	125,515	1888,678
1	0,000	125,515	1888,879
1	0,000	125,515	1889,081
1	0,000	125,567	1888,879
1	0,000	125,567	1889,584
1	0,000	125,567	1889,786
1	0,000	125,567	1889,987
1	0,000	125,567	1889,786
1	0,000	125,619	1890,189
1	0,000	125,619	1890,591
1	0,000	125,619	1890,994
1	0,000	125,619	1891,196
1	0,000	125,619	1891,397
1	0,000	125,672	1891,498
1	0,000	125,672	1891,699
1	0,000	125,672	1892,001
1	0,000	125,672	1892,102
1	0,000	125,672	1892,404
1	0,000	125,725	1892,908
1	0,000	125,725	1893,210
1	0,000	125,725	1893,512
1	0,000	125,725	1893,713
1	0,000	125,777	1893,915
1	0,000	125,777	1894,016
1	0,000	125,777	1894,318
1	0,000	125,777	1894,418
1	0,000	125,829	1894,620
1	0,000	125,829	1894,821
1	0,000	125,829	1895,224
1	0,000	125,829	1895,526
1	0,000	125,829	1895,728
1	0,000	125,881	1895,929
1	0,000	125,881	1896,231
1	0,000	125,881	1896,432
1	0,000	125,881	1896,533
1	0,000	125,881	1896,835
1	0,000	125,934	1897,238
1	0,000	125,934	1897,440
1	0,000	125,934	1897,641
1	0,000	125,934	1897,842
1	0,000	125,986	1898,044
1	0,000	125,986	1898,245
1	0,000	125,986	1898,447
1	0,000	125,986	1898,648
1	0,000	125,986	1898,849
1	0,000	126,037	1899,051
1	0,000	126,037	1899,353
1	0,000	126,037	1899,554
1	0,000	126,037	1899,756
1	0,000	126,037	1900,058
1	0,000	126,090	1900,259
1	0,000	126,090	1900,562
1	0,000	126,090	1900,662
1	0,000	126,090	1900,864
1	0,000	126,090	1901,166
1	0,000	126,143	1901,266
1	0,000	126,143	1901,569
1	0,000	126,143	1901,669
1	0,000	126,143	1901,971
1	0,000	126,143	1902,274
1	0,000	126,196	1902,676
1	0,000	126,196	1902,777
1	0,000	126,196	1902,979
1	0,000	126,196	1903,180
1	0,000	126,247	1903,381
1	0,000	126,247	1903,583
1	0,000	126,247	1903,784
1	0,000	126,247	1903,885
1	0,000	126,247	1904,388
1	0,000	126,300	1904,590
1	0,000	126,300	1904,791
1	0,000	126,300	1905,093
1	0,000	126,300	1905,194
1	0,000	126,300	1905,496
1	0,000	126,353	1905,798
1	0,000	126,353	1906,201
1	0,000	126,353	1906,403
1	0,000	126,353	1906,604
1	0,000	126,406	1906,705
1	0,000	126,406	1906,906
1	0,000	126,406	1907,108
1	0,000	126,406	1907,410
1	0,000	126,406	1907,611
1	0,000	126,459	1907,812
1	0,000	126,459	1908,215
1	0,000	126,459	1908,417
1	0,000	126,459	1908,719
1	0,000	126,459	1908,920
1	0,000	126,512	1909,122
1	0,000	126,512	1909,222
1	0,000	126,512	1909,424
1	0,000	126,512	1909,625
1	0,000	126,512	1909,625
1	0,000	126,562	1909,927
1	0,000	126,562	1910,330
1	0,000	126,562	1910,532
1	0,000	126,562	1910,733
1	0,000	126,562	1910,934
1	0,000	126,614	1911,035
1	0,000	126,614	1911,237
1	0,000	126,614	1911,438
1	0,000	126,614	1912,042
1	0,000	126,665	1912,244
1	0,000	126,665	1912,344
1	0,000	126,665	1912,546
1	0,000	126,665	1912,747
1	0,000	126,665	1912,949
1	0,000	126,716	1913,150
1	0,000	126,716	1913,351
1	0,000	126,716	1913,553
1	0,000	126,716	1913,855
1	0,000	126,716	1913,956
1	0,000	126,768	1914,157
1	0,000	126,768	1914,459
1	0,000	126,768	1914,661
1	0,000	126,768	1914,862
1	0,000	126,768	1915,466
1	0,000	126,820	1915,567
1	0,000	126,820	1915,768
1	0,000	126,820	1915,970
1	0,000	126,820	1916,171
1	0,000	126,820	1916,373
1	0,000	126,872	1916,574
1	0,000	126,872	1916,876
1	0,000	126,872	1916,977
1	0,000	126,872	1917,178
1	0,000	126,872	1917,581
1	0,000	126,925	1917,984
1	0,000	126,925	1918,185
1	0,000	126,925	1918,387
1	0,000	126,925	1918,689
1	0,000	126,977	1918,890
1	0,000	126,977	1918,890
1	0,000	126,977	1919,193
1	0,000	126,977	1919,495
1	0,000	126,977	1919,897
1	0,000	127,030	1920,200
1	0,000	127,030	1920,502
1	0,000	127,030	1920,602
1	0,000	127,030	1920,905
1	0,000	127,083	1921,005
1	0,000	127,083	1921,408
1	0,000	127,083	1921,710
1	0,000	127,083	1921,912
1	0,000	127,136	1922,516
1	0,000	127,136	1922,516
1	0,000	127,136	1922,818
1	0,000	127,136	1923,019
1	0,000	127,188	1923,523
1	0,000	127,188	1923,624
1	0,000	127,188	1924,026
1	0,000	127,188	1924,127
1	0,000	127,188	1924,530
1	0,000	127,241	1924,731
1	0,000	127,241	1924,933
1	0,000	127,241	1925,134
1	0,000	127,241	1925,134
1	0,000	127,241	1925,537
1	0,000	127,293	1925,739
1	0,000	127,293	1926,041
1	0,000	127,293	1926,242
1	0,000	127,293	1926,645
1	0,000	127,293	1926,846
1	0,000	127,346	1927,048
1	0,000	127,346	1927,249
1	0,000	127,346	1927,551
1	0,000	127,346	1927,652
1	0,000	127,398	1928,055
1	0,000	127,398	1928,256
1	0,000	127,398	1928,458
1	0,000	127,398	1928,760
1	0,000	127,398	1928,961
1	0,000	127,450	1929,163
1	0,000	127,450	1929,364
1	0,000	127,450	1929,666
1	0,000	127,450	1929,868
1	0,000	127,450	1930,170
1	0,000	127,502	1930,472
1	0,000	127,502	1930,774
1	0,000	127,502	1931,076
1	0,000	127,502	1931,277
1	0,000	127,502	1931,378
1	0,000	127,556	1931,680
1	0,000	127,556	1931,882
1	0,000	127,556	1931,982
1	0,000	127,556	1932,285
1	0,000	127,608	1932,486
1	0,000	127,608	1932,990
1	0,000	127,608	1933,191
1	0,000	127,608	1933,392
1	0,000	127,608	1933,493
1	0,000	127,661	1933,795
1	0,000	127,661	1933,997
1	0,000	127,661	1934,198
1	0,000	127,661	1934,500
1	0,000	127,661	1934,802
1	0,000	127,713	1935,004
1	0,000	127,713	1935,306
1	0,000	127,713	1935,809
1	0,000	127,766	1936,011
1	0,000	127,766	1936,111
1	0,000	127,766	1936,414
1	0,000	127,766	1936,615
1	0,000	127,766	1937,018
1	0,000	127,819	1937,219
1	0,000	127,819	1937,421
1	0,000	127,819	1937,823
1	0,000	127,819	1938,025
1	0,000	127,819	1938,226
1	0,000	127,871	1938,428
1	0,000	127,871	1938,629
1	0,000	127,871	1938,931
1	0,000	127,871	1939,133
1	0,000	127,871	1939,435
1	0,000	127,924	1939,636
1	0,000	127,924	1939,938
1	0,000	127,924	1940,140
1	0,000	127,924	1940,442
1	0,000	127,977	1940,643
1	0,000	127,977	1940,643
1	0,000	127,977	1941,147
1	0,000	127,977	1941,348
1	0,000	127,977	1941,751
1	0,000	128,030	1942,154
1	0,000	128,030	1942,456
1	0,000	128,030	1942,657
1	0,000	128,030	1942,859
1	0,000	128,083	1943,060
1	0,000	128,083	1943,362
1	0,000	128,083	1943,665
1	0,000	128,083	1943,866
1	0,000	128,136	1944,168
1	0,000	128,136	1944,470
1	0,000	128,136	1944,672
1	0,000	128,136	1944,772
1	0,000	128,136	1944,974
1	0,000	128,188	1945,276
1	0,000	128,188	1945,779
1	0,000	128,188	1946,182
1	0,000	128,188	1946,384
1	0,000	128,241	1946,585
1	0,000	128,241	1946,786
1	0,000	128,241	1946,887
1	0,000	128,241	1947,189
1	0,000	128,241	1947,491
1	0,000	128,293	1947,794
1	0,000	128,293	1948,196
1	0,000	128,293	1948,297
1	0,000	128,293	1948,398
1	0,000	128,347	1948,700
1	0,000	128,347	1948,901
1	0,000	128,347	1949,103
1	0,000	128,347	1949,405
1	0,000	128,347	1949,606
1	0,000	128,399	1950,110
1	0,000	128,399	1950,211
1	0,000	128,399	1950,412
1	0,000	128,399	1950,714
1	0,000	128,399	1951,016
1	0,000	128,452	1951,218
1	0,000	128,452	1951,620
1	0,000	128,452	1951,721
1	0,000	128,452	1951,822
1	0,000	128,505	1952,225
1	0,000	128,505	1952,426
1	0,000	128,505	1952,728
1	0,000	128,505	1952,829
1	0,000	128,505	1953,131
1	0,000	128,558	1953,635
1	0,000	128,558	1954,138
1	0,000	128,558	1954,340
1	0,000	128,558	1954,541
1	0,000	128,612	1954,642
1	0,000	128,612	1954,843
1	0,000	128,612	1955,246
1	0,000	128,612	1955,447
1	0,000	128,665	1955,548
1	0,000	128,665	1955,850
1	0,000	128,665	1956,052
1	0,000	128,665	1956,253
1	0,000	128,665	1956,555
1	0,000	128,717	1956,757
1	0,000	128,717	1957,059
1	0,000	128,717	1957,462
1	0,000	128,717	1957,864
1	0,000	128,771	1958,167
1	0,000	128,771	1958,267
1	0,000	128,771	1958,167
1	0,000	128,771	1958,771
1	0,000	128,771	1958,972
1	0,000	128,822	1959,073
1	0,000	128,822	1959,375
1	0,000	128,822	1959,879
1	0,000	128,822	1960,181
1	0,000	128,875	1960,382
1	0,000	128,875	1960,483
1	0,000	128,875	1960,684
1	0,000	128,875	1960,986
1	0,000	128,875	1961,188
1	0,000	128,875	1961,288
1	0,000	128,928	1961,792
1	0,000	128,928	1961,993
1	0,000	128,928	1962,195
1	0,000	128,928	1962,396
1	0,000	128,980	1962,598
1	0,000	128,980	1962,799
1	0,000	128,980	1962,900
1	0,000	128,980	1963,202
1	0,000	128,980	1963,504
1	0,000	129,033	1963,705
1	0,000	129,033	1964,209
1	0,000	129,033	1964,310
1	0,000	129,033	1964,511
1	0,000	129,085	1964,713
1	0,000	129,085	1965,015
1	0,000	129,085	1965,317
1	0,000	129,085	1965,518
1	0,000	129,085	1965,720
1	0,000	129,085	1965,921
1	0,000	129,137	1966,223
1	0,000	129,137	1966,525
1	0,000	129,137	1966,928
1	0,000	129,190	1967,230
1	0,000	129,190	1967,432
1	0,000	129,190	1967,532
1	0,000	129,190	1967,834
1	0,000	129,190	1968,137
1	0,000	129,243	1968,439
1	0,000	129,243	1968,741
1	0,000	129,243	1968,942
1	0,000	129,243	1969,144
1	0,000	129,296	1969,345
1	0,000	129,296	1969,547
1	0,000	129,296	1969,748
1	0,000	129,296	1970,251
1	0,000	129,296	1970,453
1	0,000	129,349	1970,755
1	0,000	129,349	1970,956
1	0,000	129,349	1971,158
1	0,000	129,349	1971,460
1	0,000	129,349	1971,661
1	0,000	129,402	1971,863
1	0,000	129,402	1972,064
1	0,000	129,402	1972,568
1	0,000	129,402	1972,568
1	0,000	129,454	1972,971
1	0,000	129,454	1973,172
1	0,000	129,454	1973,373
1	0,000	129,454	1973,575
1	0,000	129,454	1973,776
1	0,000	129,506	1973,978
1	0,000	129,506	1974,280
1	0,000	129,506	1974,280
1	0,000	129,506	1974,884
1	0,000	129,506	1975,085
1	0,000	129,559	1975,287
1	0,000	129,559	1975,589
1	0,000	129,559	1975,790
1	0,000	129,559	1975,992
1	0,000	129,559	1976,193
1	0,000	129,611	1976,395
1	0,000	129,611	1976,596
1	0,000	129,611	1976,797
1	0,000	129,611	1977,301
1	0,000	129,664	1977,502
1	0,000	129,664	1977,805
1	0,000	129,664	1978,006
1	0,000	129,664	1978,207
1	0,000	129,664	1978,409
1	0,000	129,716	1978,711
1	0,000	129,716	1979,114
1	0,000	129,716	1979,214
1	0,000	129,716	1979,517
1	0,000	129,716	1979,819
1	0,000	129,769	1980,020
1	0,000	129,769	1980,222
1	0,000	129,769	1980,423
1	0,000	129,769	1980,624
1	0,000	129,769	1980,826
1	0,000	129,822	1981,027
1	0,000	129,822	1981,531
1	0,000	129,822	1982,034
1	0,000	129,822	1982,236
1	0,000	129,875	1982,538
1	0,000	129,875	1982,739
1	0,000	129,875	1982,840
1	0,000	129,875	1983,041
1	0,000	129,928	1983,545
1	0,000	129,928	1983,746
1	0,000	129,928	1983,948
1	0,000	129,928	1984,149
1	0,000	129,928	1984,451
1	0,000	129,981	1984,653
1	0,000	129,981	1984,854
1	0,000	129,981	1985,257
1	0,000	129,981	1985,559
1	0,000	130,035	1985,660
1	0,000	130,035	1986,063
1	0,000	130,035	1986,163
1	0,000	130,035	1986,365
1	0,000	130,035	1986,667
1	0,000	130,035	1986,868
1	0,000	130,088	1987,271
1	0,000	130,088	1987,473
1	0,000	130,088	1987,674
1	0,000	130,088	1987,875
1	0,000	130,140	1988,278
1	0,000	130,140	1988,379
1	0,000	130,140	1988,580
1	0,000	130,140	1988,782
1	0,000	130,140	1989,084
1	0,000	130,193	1989,587
1	0,000	130,193	1989,890
1	0,000	130,193	1990,292
1	0,000	130,245	1990,393
1	0,000	130,245	1990,594
1	0,000	130,245	1990,796
1	0,000	130,245	1990,997
1	0,000	130,245	1991,199
1	0,000	130,245	1991,702
1	0,000	130,298	1991,803
1	0,000	130,298	1992,307
1	0,000	130,298	1992,407
1	0,000	130,298	1992,709
1	0,000	130,351	1992,911
1	0,000	130,351	1993,112
1	0,000	130,351	1993,314
1	0,000	130,351	1993,817
1	0,000	130,351	1994,019
1	0,000	130,404	1994,220
1	0,000	130,404	1994,321
1	0,000	130,404	1994,623
1	0,000	130,404	1994,724
1	0,000	130,456	1995,126
1	0,000	130,456	1995,328
1	0,000	130,456	1995,529
1	0,000	130,456	1995,731
1	0,000	130,456	1995,932
1	0,000	130,456	1996,536
1	0,000	130,508	1996,738
1	0,000	130,508	1996,939
1	0,000	130,508	1997,241
1	0,000	130,508	1997,543
1	0,000	130,561	1997,644
1	0,000	130,561	1998,047
1	0,000	130,561	1998,248
1	0,000	130,561	1998,450
1	0,000	130,561	1998,651
1	0,000	130,615	1998,953
1	0,000	130,615	1999,155
1	0,000	130,615	1999,356
1	0,000	130,615	1999,557
1	0,000	130,668	2000,061
1	0,000	130,668	2000,262
1	0,000	130,668	2000,565
1	0,000	130,668	2000,665
1	0,000	130,668	2000,967
1	0,000	130,721	2001,169
1	0,000	130,721	2001,370
1	0,000	130,721	2001,773
1	0,000	130,721	2001,974
1	0,000	130,775	2002,277
1	0,000	130,775	2002,478
1	0,000	130,775	2002,780
1	0,000	130,775	2002,982
1	0,000	130,775	2003,183
1	0,000	130,775	2003,687
1	0,000	130,828	2003,989
1	0,000	130,828	2004,190
1	0,000	130,828	2004,391
1	0,000	130,828	2004,593
1	0,000	130,881	2004,794
1	0,000	130,881	2004,996
1	0,000	130,881	2005,399
1	0,000	130,881	2005,600
1	0,000	130,881	2005,902
1	0,000	130,934	2006,104
1	0,000	130,934	2006,406
1	0,000	130,934	2006,607
1	0,000	130,934	2006,808
1	0,000	130,986	2006,909
1	0,000	130,986	2007,513
1	0,000	130,986	2007,816
1	0,000	130,986	2008,118
1	0,000	130,986	2008,218
1	0,000	131,040	2008,420
1	0,000	131,040	2008,621
1	0,000	131,040	2008,823
1	0,000	131,040	2009,225
1	0,000	131,093	2009,528
1	0,000	131,093	2009,729
1	0,000	131,093	2010,031
1	0,000	131,093	2010,132
1	0,000	131,093	2010,434
1	0,000	131,147	2010,635
1	0,000	131,147	2011,139
1	0,000	131,147	2011,340
1	0,000	131,147	2011,642
1	0,000	131,147	2011,743
1	0,000	131,200	2011,945
1	0,000	131,200	2012,146
1	0,000	131,200	2012,347
1	0,000	131,200	2012,851
1	0,000	131,254	2013,455
1	0,000	131,254	2013,455
1	0,000	131,254	2013,455
1	0,000	131,254	2014,059
1	0,000	131,307	2014,462
1	0,000	131,307	2014,966
1	0,000	131,307	2015,167
1	0,000	131,307	2015,268
1	0,000	131,360	2015,369
1	0,000	131,360	2015,872
1	0,000	131,360	2015,973
1	0,000	131,360	2016,174
1	0,000	131,360	2016,577
1	0,000	131,413	2016,980
1	0,000	131,413	2016,980
1	0,000	131,413	2017,181
1	0,000	131,413	2017,685
1	0,000	131,413	2017,886
1	0,000	131,466	2018,088
1	0,000	131,466	2018,188
1	0,000	131,466	2018,793
1	0,000	131,466	2019,095
1	0,000	131,519	2019,196
1	0,000	131,519	2019,397
1	0,000	131,519	2019,598
1	0,000	131,519	2019,800
1	0,000	131,519	2020,203
1	0,000	131,572	2020,605
1	0,000	131,572	2020,908
1	0,000	131,572	2021,109
1	0,000	131,572	2021,210
1	0,000	131,625	2021,411
1	0,000	131,625	2021,713
1	0,000	131,625	2022,015
1	0,000	131,625	2022,318
1	0,000	131,625	2022,519
1	0,000	131,625	2022,821
1	0,000	131,677	2022,922
1	0,000	131,677	2023,224
1	0,000	131,677	2023,526
1	0,000	131,677	2023,727
1	0,000	131,730	2024,030
1	0,000	131,730	2024,130
1	0,000	131,730	2024,634
1	0,000	131,730	2024,835
1	0,000	131,730	2025,137
1	0,000	131,783	2025,137
1	0,000	131,783	2025,742
1	0,000	131,783	2025,943
1	0,000	131,783	2026,044
1	0,000	131,836	2026,245
1	0,000	131,836	2026,346
1	0,000	131,836	2026,346
1	0,000	131,836	2026,950
1	0,000	131,836	2027,252
1	0,000	131,889	2027,454
1	0,000	131,889	2027,756
1	0,000	131,889	2027,957
1	0,000	131,889	2028,159
1	0,000	131,889	2028,360
1	0,000	131,939	2028,662
1	0,000	131,939	2028,864
1	0,000	131,939	2029,065
1	0,000	131,939	2029,468
1	0,000	131,939	2029,669
1	0,000	131,989	2029,871
1	0,000	131,989	2029,971
1	0,000	131,989	2030,173
1	0,000	131,989	2030,374
1	0,000	131,989	2030,475
1	0,000	132,040	2030,978
1	0,000	132,040	2031,180
1	0,000	132,040	2031,281
1	0,000	132,040	2031,583
1	0,000	132,040	2031,784
1	0,000	132,089	2031,885
1	0,000	132,089	2032,086
1	0,000	132,089	2032,187
1	0,000	132,089	2032,489
1	0,000	132,089	2032,791
1	0,000	132,139	2032,892
1	0,000	132,139	2033,093
1	0,000	132,139	2033,597
1	0,000	132,139	2033,698
1	0,000	132,139	2033,899
1	0,000	132,189	2034,000
1	0,000	132,189	2034,302
1	0,000	132,189	2034,604
1	0,000	132,189	2034,503
1	0,000	132,189	2034,705
1	0,000	132,240	2035,007
1	0,000	132,240	2035,208
1	0,000	132,240	2035,510
1	0,000	132,240	2035,712
1	0,000	132,240	2035,812
1	0,000	132,290	2036,115
1	0,000	132,290	2036,316
1	0,000	132,290	2036,517
1	0,000	132,290	2036,920
1	0,000	132,290	2037,021
1	0,000	132,339	2037,222
1	0,000	132,339	2037,122
1	0,000	132,339	2037,726
1	0,000	132,339	2037,927
1	0,000	132,339	2038,028
1	0,000	132,389	2038,229
1	0,000	132,389	2038,531
1	0,000	132,389	2038,834
1	0,000	132,389	2039,035
1	0,000	132,389	2039,236
1	0,000	132,440	2039,639
1	0,000	132,440	2039,841
1	0,000	132,440	2040,042
1	0,000	132,440	2040,344
1	0,000	132,440	2040,646
1	0,000	132,490	2040,848
1	0,000	132,490	2041,150
1	0,000	132,490	2041,452
1	0,000	132,490	2041,653
1	0,000	132,490	2041,754
1	0,000	132,540	2041,956
1	0,000	132,540	2042,056
1	0,000	132,540	2042,358
1	0,000	132,540	2042,560
1	0,000	132,540	2042,661
1	0,000	132,590	2042,862
1	0,000	132,590	2043,164
1	0,000	132,590	2043,466
1	0,000	132,590	2043,668
1	0,000	132,590	2043,970
1	0,000	132,640	2044,171
1	0,000	132,640	2044,373
1	0,000	132,640	2044,574
1	0,000	132,640	2044,675
1	0,000	132,640	2044,876
1	0,000	132,690	2045,078
1	0,000	132,690	2045,380
1	0,000	132,690	2045,480
1	0,000	132,690	2045,883
1	0,000	132,690	2046,085
1	0,000	132,740	2046,286
1	0,000	132,740	2046,588
1	0,000	132,740	2046,890
1	0,000	132,740	2046,991
1	0,000	132,740	2047,394
1	0,000	132,790	2047,595
1	0,000	132,790	2047,797
1	0,000	132,790	2047,998
1	0,000	132,790	2047,998
1	0,000	132,790	2048,502
1	0,000	132,840	2048,804
1	0,000	132,840	2048,904
1	0,000	132,840	2049,207
1	0,000	132,840	2049,408
1	0,000	132,840	2049,609
1	0,000	132,890	2049,609
1	0,000	132,890	2049,911
1	0,000	132,890	2050,214
1	0,000	132,890	2050,516
1	0,000	132,890	2050,818
1	0,000	132,941	2050,919
1	0,000	132,941	2051,120
1	0,000	132,941	2051,221
1	0,000	132,941	2051,523
1	0,000	132,941	2051,724
1	0,000	132,991	2051,926
1	0,000	132,991	2052,127
1	0,000	132,991	2052,127
1	0,000	132,991	2052,731
1	0,000	132,991	2052,933
1	0,000	133,040	2053,235
1	0,000	133,040	2053,537
1	0,000	133,040	2053,738
1	0,000	133,040	2053,940
1	0,000	133,040	2054,141
1	0,000	133,090	2054,343
1	0,000	133,090	2054,544
1	0,000	133,090	2054,343
1	0,000	133,090	2054,947
1	0,000	133,090	2055,249
1	0,000	133,090	2055,350
1	0,000	133,141	2055,652
1	0,000	133,141	2055,853
1	0,000	133,141	2056,055
1	0,000	133,141	2056,458
1	0,000	133,141	2056,659
1	0,000	133,191	2056,961
1	0,000	133,191	2057,162
1	0,000	133,191	2057,364
1	0,000	133,191	2057,565
1	0,000	133,241	2057,767
1	0,000	133,241	2058,069
1	0,000	133,241	2058,170
1	0,000	133,241	2058,572
1	0,000	133,241	2058,673
1	0,000	133,291	2058,975
1	0,000	133,291	2059,177
1	0,000	133,291	2059,378
1	0,000	133,291	2059,680
1	0,000	133,291	2059,882
1	0,000	133,291	2059,982
1	0,000	133,341	2060,184
1	0,000	133,341	2060,385
1	0,000	133,341	2060,587
1	0,000	133,341	2060,788
1	0,000	133,341	2061,090
1	0,000	133,391	2061,292
1	0,000	133,391	2061,694
1	0,000	133,391	2061,896
1	0,000	133,391	2062,097
1	0,000	133,391	2062,299
1	0,000	133,442	2062,500
1	0,000	133,442	2062,802
1	0,000	133,442	2063,004
1	0,000	133,442	2063,306
1	0,000	133,442	2063,507
1	0,000	133,491	2063,708
1	0,000	133,491	2063,910
1	0,000	133,491	2064,212
1	0,000	133,491	2064,514
1	0,000	133,491	2064,615
1	0,000	133,542	2064,716
1	0,000	133,542	2065,118
1	0,000	133,542	2065,320
1	0,000	133,542	2065,622
1	0,000	133,542	2065,723
1	0,000	133,592	2066,025
1	0,000	133,592	2066,226
1	0,000	133,592	2066,528
1	0,000	133,592	2066,730
1	0,000	133,592	2066,931
1	0,000	133,642	2067,133
1	0,000	133,642	2067,334
1	0,000	133,642	2067,535
1	0,000	133,642	2067,737
1	0,000	133,642	2068,039
1	0,000	133,692	2068,240
1	0,000	133,692	2068,542
1	0,000	133,692	2068,845
1	0,000	133,692	2068,945
1	0,000	133,692	2069,247
1	0,000	133,742	2069,449
1	0,000	133,742	2069,650
1	0,000	133,742	2069,952
1	0,000	133,742	2070,154
1	0,000	133,742	2069,952
1	0,000	133,792	2070,557
1	0,000	133,792	2070,758
1	0,000	133,792	2071,060
1	0,000	133,792	2071,262
1	0,000	133,792	2071,463
1	0,000	133,843	2071,765
1	0,000	133,843	2071,967
1	0,000	133,843	2072,168
1	0,000	133,843	2072,470
1	0,000	133,843	2072,672
1	0,000	133,892	2072,974
1	0,000	133,892	2073,175
1	0,000	133,892	2073,376
1	0,000	133,892	2073,578
1	0,000	133,892	2073,779
1	0,000	133,943	2074,081
1	0,000	133,943	2074,283
1	0,000	133,943	2074,585
1	0,000	133,943	2074,686
1	0,000	133,943	2074,988
1	0,000	133,993	2075,290
1	0,000	133,993	2075,391
1	0,000	133,993	2075,793
1	0,000	133,993	2075,995
1	0,000	133,993	2076,297
1	0,000	134,044	2076,498
1	0,000	134,044	2076,801
1	0,000	134,044	2077,002
1	0,000	134,044	2077,203
1	0,000	134,044	2077,405
1	0,000	134,094	2077,606
1	0,000	134,094	2077,808
1	0,000	134,094	2078,009
1	0,000	134,094	2078,210
1	0,000	134,094	2078,513
1	0,000	134,144	2078,714
1	0,000	134,144	2079,016
1	0,000	134,144	2079,318
1	0,000	134,144	2079,620
1	0,000	134,144	2079,721
1	0,000	134,194	2079,922
1	0,000	134,194	2080,225
1	0,000	134,194	2080,426
1	0,000	134,194	2080,728
1	0,000	134,194	2080,829
1	0,000	134,244	2081,131
1	0,000	134,244	2081,332
1	0,000	134,244	2081,635
1	0,000	134,244	2081,836
1	0,000	134,244	2082,037
1	0,000	134,294	2082,239
1	0,000	134,294	2082,440
1	0,000	134,294	2082,742
1	0,000	134,294	2082,944
1	0,000	134,294	2083,246
1	0,000	134,344	2083,548
1	0,000	134,344	2083,649
1	0,000	134,344	2083,951
1	0,000	134,344	2084,152
1	0,000	134,344	2084,354
1	0,000	134,394	2084,656
1	0,000	134,394	2084,857
1	0,000	134,394	2085,059
1	0,000	134,394	2085,361
1	0,000	134,394	2085,562
1	0,000	134,444	2085,764
1	0,000	134,444	2085,965
1	0,000	134,444	2086,267
1	0,000	134,444	2086,569
1	0,000	134,444	2086,871
1	0,000	134,494	2087,173
1	0,000	134,494	2087,375
1	0,000	134,494	2087,476
1	0,000	134,494	2087,677
1	0,000	134,494	2087,979
1	0,000	134,544	2088,181
1	0,000	134,544	2088,382
1	0,000	134,544	2088,684
1	0,000	134,544	2088,885
1	0,000	134,544	2089,188
1	0,000	134,594	2089,288
1	0,000	134,594	2089,590
1	0,000	134,594	2089,792
1	0,000	134,594	2089,993
1	0,000	134,594	2090,396
1	0,000	134,644	2090,598
1	0,000	134,644	2090,900
1	0,000	134,644	2091,101
1	0,000	134,644	2091,302
1	0,000	134,644	2091,504
1	0,000	134,694	2091,705
1	0,000	134,694	2092,007
1	0,000	134,694	2092,108
1	0,000	134,694	2092,310
1	0,000	134,694	2092,612
1	0,000	134,744	2092,914
1	0,000	134,744	2093,115
1	0,000	134,744	2093,317
1	0,000	134,744	2093,518
1	0,000	134,744	2093,820
1	0,000	134,794	2094,223
1	0,000	134,794	2094,424
1	0,000	134,794	2094,626
1	0,000	134,794	2094,827
1	0,000	134,794	2095,029
1	0,000	134,844	2095,331
1	0,000	134,844	2095,432
1	0,000	134,844	2095,633
1	0,000	134,844	2096,036
1	0,000	134,844	2096,237
1	0,000	134,894	2096,439
1	0,000	134,894	2096,640
1	0,000	134,894	2096,942
1	0,000	134,894	2097,144
1	0,000	134,894	2097,345
1	0,000	134,945	2097,647
1	0,000	134,945	2097,949
1	0,000	134,945	2098,151
1	0,000	134,945	2098,352
1	0,000	134,945	2098,654
1	0,000	134,995	2098,856
1	0,000	134,995	2099,057
1	0,000	134,995	2099,258
1	0,000	134,995	2099,460
1	0,000	134,995	2099,762
1	0,000	135,045	2099,963
1	0,000	135,045	2100,165
1	0,000	135,045	2100,366
1	0,000	135,045	2100,668
1	0,000	135,045	2100,870
1	0,000	135,096	2101,172
1	0,000	135,096	2101,373
1	0,000	135,096	2101,675
1	0,000	135,096	2101,877
1	0,000	135,096	2102,179
1	0,000	135,146	2102,380
1	0,000	135,146	2102,582
1	0,000	135,146	2102,783
1	0,000	135,146	2102,985
1	0,000	135,146	2103,287
1	0,000	135,196	2103,488
1	0,000	135,196	2103,790
1	0,000	135,196	2104,092
1	0,000	135,196	2104,193
1	0,000	135,196	2104,395
1	0,000	135,246	2104,697
1	0,000	135,246	2104,797
1	0,000	135,246	2105,099
1	0,000	135,246	2105,301
1	0,000	135,246	2105,704
1	0,000	135,296	2105,905
1	0,000	135,296	2106,107
1	0,000	135,296	2106,308
1	0,000	135,296	2106,610
1	0,000	135,296	2106,812
1	0,000	135,346	2107,013
1	0,000	135,346	2107,114
1	0,000	135,346	2107,617
1	0,000	135,346	2107,617
1	0,000	135,346	2108,121
1	0,000	135,396	2108,221
1	0,000	135,396	2108,524
1	0,000	135,396	2108,826
1	0,000	135,396	2109,027
1	0,000	135,396	2109,329
1	0,000	135,446	2109,531
1	0,000	135,446	2109,430
1	0,000	135,446	2109,833
1	0,000	135,446	2110,236
1	0,000	135,446	2110,437
1	0,000	135,496	2110,739
1	0,000	135,496	2110,941
1	0,000	135,496	2111,041
1	0,000	135,496	2111,343
1	0,000	135,496	2111,545
1	0,000	135,546	2111,948
1	0,000	135,546	2112,149
1	0,000	135,546	2112,451
1	0,000	135,546	2112,753
1	0,000	135,546	2112,753
1	0,000	135,596	2113,156
1	0,000	135,596	2113,358
1	0,000	135,596	2113,559
1	0,000	135,596	2113,760
1	0,000	135,596	2114,062
1	0,000	135,647	2114,264
1	0,000	135,647	2114,465
1	0,000	135,647	2114,767
1	0,000	135,647	2114,969
1	0,000	135,647	2115,372
1	0,000	135,697	2115,472
1	0,000	135,697	2115,674
1	0,000	135,697	2115,976
1	0,000	135,697	2116,077
1	0,000	135,697	2116,479
1	0,000	135,747	2116,681
1	0,000	135,747	2116,983
1	0,000	135,747	2117,184
1	0,000	135,747	2117,487
1	0,000	135,747	2117,688
1	0,000	135,797	2117,789
1	0,000	135,797	2118,091
1	0,000	135,797	2118,393
1	0,000	135,797	2118,695
1	0,000	135,797	2118,896
1	0,000	135,846	2119,098
1	0,000	135,846	2119,400
1	0,000	135,846	2119,601
1	0,000	135,846	2119,904
1	0,000	135,846	2120,004
1	0,000	135,896	2120,306
1	0,000	135,896	2120,508
1	0,000	135,896	2120,810
1	0,000	135,896	2121,112
1	0,000	135,896	2121,213
1	0,000	135,946	2121,515
1	0,000	135,946	2121,716
1	0,000	135,946	2122,018
1	0,000	135,946	2122,220
1	0,000	135,946	2122,522
1	0,000	135,996	2122,723
1	0,000	135,996	2122,925
1	0,000	135,996	2123,227
1	0,000	135,996	2123,428
1	0,000	135,996	2123,630
1	0,000	136,046	2123,932
1	0,000	136,046	2124,133
1	0,000	136,046	2124,435
1	0,000	136,046	2124,637
1	0,000	136,046	2124,939
1	0,000	136,097	2125,040
1	0,000	136,097	2125,342
1	0,000	136,097	2125,644
1	0,000	136,097	2125,845
1	0,000	136,097	2126,147
1	0,000	136,147	2126,248
1	0,000	136,147	2126,550
1	0,000	136,147	2126,752
1	0,000	136,147	2127,054
1	0,000	136,147	2127,255
1	0,000	136,197	2127,557
1	0,000	136,197	2127,859
1	0,000	136,197	2128,061
1	0,000	136,197	2128,262
1	0,000	136,197	2128,464
1	0,000	136,247	2128,665
1	0,000	136,247	2128,967
1	0,000	136,247	2129,169
1	0,000	136,247	2129,471
1	0,000	136,247	2129,672
1	0,000	136,297	2129,974
1	0,000	136,297	2130,176
1	0,000	136,297	2130,478
1	0,000	136,297	2130,780
1	0,000	136,297	2130,881
1	0,000	136,347	2131,183
1	0,000	136,347	2131,485
1	0,000	136,347	2131,686
1	0,000	136,347	2131,888
1	0,000	136,347	2132,089
1	0,000	136,397	2132,391
1	0,000	136,397	2132,593
1	0,000	136,397	2132,895
1	0,000	136,397	2133,096
1	0,000	136,397	2133,398
1	0,000	136,447	2133,600
1	0,000	136,447	2133,902
1	0,000	136,447	2134,103
1	0,000	136,447	2134,406
1	0,000	136,447	2134,808
1	0,000	136,497	2134,909
1	0,000	136,497	2135,110
1	0,000	136,497	2135,413
1	0,000	136,497	2135,614
1	0,000	136,497	2135,916
1	0,000	136,547	2136,218
1	0,000	136,547	2136,319
1	0,000	136,547	2136,621
1	0,000	136,547	2136,823
1	0,000	136,547	2137,125
1	0,000	136,597	2137,326
1	0,000	136,597	2137,527
1	0,000	136,597	2137,830
1	0,000	136,597	2138,031
1	0,000	136,597	2138,232
1	0,000	136,648	2138,535
1	0,000	136,648	2138,736
1	0,000	136,648	2139,038
1	0,000	136,648	2139,340
1	0,000	136,648	2139,441
1	0,000	136,697	2139,642
1	0,000	136,697	2139,944
1	0,000	136,697	2140,247
1	0,000	136,697	2140,448
1	0,000	136,697	2140,750
1	0,000	136,748	2140,952
1	0,000	136,748	2141,153
1	0,000	136,748	2141,455
1	0,000	136,748	2141,656
1	0,000	136,748	2141,959
1	0,000	136,798	2142,160
1	0,000	136,798	2142,462
1	0,000	136,798	2142,664
1	0,000	136,798	2142,865
1	0,000	136,798	2143,167
1	0,000	136,798	2143,369
1	0,000	136,848	2143,872
1	0,000	136,848	2143,872
1	0,000	136,848	2144,174
1	0,000	136,848	2144,376
1	0,000	136,899	2144,476
1	0,000	136,899	2144,980
1	0,000	136,899	2145,181
1	0,000	136,899	2145,584
1	0,000	136,899	2145,786
1	0,000	136,899	2145,786
1	0,000	136,949	2146,088
1	0,000	136,949	2146,390
1	0,000	136,949	2146,591
1	0,000	136,949	2146,893
1	0,000	136,998	2147,195
1	0,000	136,998	2147,296
1	0,000	136,998	2147,598
1	0,000	136,998	2147,800
1	0,000	136,998	2148,102
1	0,000	137,049	2148,404
1	0,000	137,049	2148,605
1	0,000	137,049	2148,907
1	0,000	137,049	2149,210
1	0,000	137,049	2149,512
1	0,000	137,049	2149,612
1	0,000	137,099	2149,814
1	0,000	137,099	2150,015
1	0,000	137,099	2150,217
1	0,000	137,099	2150,519
1	0,000	137,099	2150,821
1	0,000	137,149	2151,123
1	0,000	137,149	2151,324
1	0,000	137,149	2151,526
1	0,000	137,149	2151,828
1	0,000	137,149	2152,029
1	0,000	137,199	2152,029
1	0,000	137,199	2152,634
1	0,000	137,199	2152,835
1	0,000	137,199	2153,036
1	0,000	137,199	2153,238
1	0,000	137,250	2153,439
1	0,000	137,250	2153,641
1	0,000	137,250	2154,044
1	0,000	137,250	2154,245
1	0,000	137,299	2154,547
1	0,000	137,299	2154,749
1	0,000	137,299	2155,051
1	0,000	137,299	2155,252
1	0,000	137,299	2155,554
1	0,000	137,299	2155,756
1	0,000	137,349	2156,058
1	0,000	137,349	2156,259
1	0,000	137,349	2156,561
1	0,000	137,349	2156,763
1	0,000	137,349	2156,964
1	0,000	137,399	2157,266
1	0,000	137,399	2157,468
1	0,000	137,399	2157,770
1	0,000	137,399	2157,971
1	0,000	137,399	2158,273
1	0,000	137,449	2158,475
1	0,000	137,449	2158,777
1	0,000	137,449	2159,079
1	0,000	137,449	2159,280
1	0,000	137,449	2159,583
1	0,000	137,499	2159,784
1	0,000	137,499	2159,985
1	0,000	137,499	2160,287
1	0,000	137,499	2160,489
1	0,000	137,499	2160,791
1	0,000	137,549	2160,992
1	0,000	137,549	2161,295
1	0,000	137,549	2161,597
1	0,000	137,549	2161,798
1	0,000	137,549	2162,100
1	0,000	137,599	2162,302
1	0,000	137,599	2162,604
1	0,000	137,599	2162,805
1	0,000	137,599	2163,107
1	0,000	137,599	2163,309
1	0,000	137,650	2163,611
1	0,000	137,650	2163,712
1	0,000	137,650	2164,014
1	0,000	137,650	2164,215
1	0,000	137,650	2164,517
1	0,000	137,700	2164,719
1	0,000	137,700	2164,920
1	0,000	137,700	2165,222
1	0,000	137,700	2165,323
1	0,000	137,750	2165,726
1	0,000	137,750	2165,927
1	0,000	137,750	2166,229
1	0,000	137,750	2166,431
1	0,000	137,750	2166,733
1	0,000	137,800	2166,934
1	0,000	137,800	2167,136
1	0,000	137,800	2167,438
1	0,000	137,800	2167,740
1	0,000	137,800	2167,841
1	0,000	137,800	2168,243
1	0,000	137,850	2168,445
1	0,000	137,850	2168,747
1	0,000	137,850	2168,948
1	0,000	137,850	2169,250
1	0,000	137,850	2169,452
1	0,000	137,900	2169,653
1	0,000	137,900	2169,955
1	0,000	137,900	2170,258
1	0,000	137,900	2170,459
1	0,000	137,900	2170,660
1	0,000	137,950	2170,963
1	0,000	137,950	2171,265
1	0,000	137,950	2171,365
1	0,000	137,950	2171,667
1	0,000	137,950	2171,970
1	0,000	138,001	2172,171
1	0,000	138,001	2172,473
1	0,000	138,001	2172,675
1	0,000	138,001	2172,977
1	0,000	138,001	2173,279
1	0,000	138,051	2173,380
1	0,000	138,051	2173,682
1	0,000	138,051	2173,883
1	0,000	138,051	2174,185
1	0,000	138,051	2174,487
1	0,000	138,101	2174,588
1	0,000	138,101	2174,991
1	0,000	138,101	2175,192
1	0,000	138,101	2175,394
1	0,000	138,101	2175,696
1	0,000	138,151	2175,897
1	0,000	138,151	2176,099
1	0,000	138,151	2176,401
1	0,000	138,151	2176,602
1	0,000	138,151	2176,904
1	0,000	138,201	2177,106
1	0,000	138,201	2177,106
1	0,000	138,201	2177,710
1	0,000	138,201	2177,911
1	0,000	138,201	2178,214
1	0,000	138,251	2178,415
1	0,000	138,251	2178,616
1	0,000	138,251	2179,019
1	0,000	138,251	2179,221
1	0,000	138,251	2179,422
1	0,000	138,301	2179,623
1	0,000	138,301	2180,026
1	0,000	138,301	2180,228
1	0,000	138,301	2180,630
1	0,000	138,301	2180,832
1	0,000	138,351	2181,033
1	0,000	138,351	2181,235
1	0,000	138,351	2181,436
1	0,000	138,351	2181,738
1	0,000	138,351	2181,940
1	0,000	138,351	2182,242
1	0,000	138,402	2182,443
1	0,000	138,402	2182,745
1	0,000	138,402	2182,947
1	0,000	138,402	2183,249
1	0,000	138,452	2183,450
1	0,000	138,452	2183,752
1	0,000	138,452	2184,055
1	0,000	138,452	2184,256
1	0,000	138,452	2184,357
1	0,000	138,502	2184,860
1	0,000	138,502	2185,062
1	0,000	138,502	2185,364
1	0,000	138,502	2185,565
1	0,000	138,502	2185,767
1	0,000	138,552	2186,069
1	0,000	138,552	2186,270
1	0,000	138,552	2186,572
1	0,000	138,552	2186,774
1	0,000	138,552	2186,975
1	0,000	138,602	2187,277
1	0,000	138,602	2187,579
1	0,000	138,602	2187,781
1	0,000	138,602	2187,881
1	0,000	138,602	2188,385
1	0,000	138,652	2188,586
1	0,000	138,652	2188,889
1	0,000	138,652	2188,989
1	0,000	138,652	2189,291
1	0,000	138,652	2189,594
1	0,000	138,702	2189,795
1	0,000	138,702	2190,097
1	0,000	138,702	2190,298
1	0,000	138,702	2190,601
1	0,000	138,702	2190,903
1	0,000	138,753	2191,104
1	0,000	138,753	2191,306
1	0,000	138,753	2191,608
1	0,000	138,753	2191,910
1	0,000	138,753	2192,111
1	0,000	138,802	2192,413
1	0,000	138,802	2192,615
1	0,000	138,802	2192,816
1	0,000	138,802	2193,219
1	0,000	138,802	2193,420
1	0,000	138,852	2193,622
1	0,000	138,852	2193,924
1	0,000	138,852	2194,125
1	0,000	138,852	2194,327
1	0,000	138,852	2194,730
1	0,000	138,902	2194,931
1	0,000	138,902	2195,233
1	0,000	138,902	2195,435
1	0,000	138,902	2195,636
1	0,000	138,902	2196,039
1	0,000	138,952	2196,240
1	0,000	138,952	2196,442
1	0,000	138,952	2196,643
1	0,000	138,952	2196,844
1	0,000	138,952	2197,247
1	0,000	139,003	2197,449
1	0,000	139,003	2197,751
1	0,000	139,003	2197,952
1	0,000	139,003	2198,254
1	0,000	139,003	2198,456
1	0,000	139,053	2198,758
1	0,000	139,053	2198,959
1	0,000	139,053	2199,261
1	0,000	139,053	2199,463
1	0,000	139,053	2199,664
1	0,000	139,103	2199,966
1	0,000	139,103	2200,168
1	0,000	139,103	2200,470
1	0,000	139,103	2200,671
1	0,000	139,103	2200,873
1	0,000	139,153	2201,276
1	0,000	139,153	2201,477
1	0,000	139,153	2201,678
1	0,000	139,153	2201,981
1	0,000	139,153	2202,283
1	0,000	139,204	2202,484
1	0,000	139,204	2202,686
1	0,000	139,204	2202,988
1	0,000	139,204	2203,290
1	0,000	139,204	2203,592
1	0,000	139,254	2203,894
1	0,000	139,254	2204,196
1	0,000	139,254	2204,398
1	0,000	139,254	2204,599
1	0,000	139,254	2204,800
1	0,000	139,304	2205,103
1	0,000	139,304	2205,405
1	0,000	139,304	2205,606
1	0,000	139,304	2205,807
1	0,000	139,304	2206,110
1	0,000	139,355	2206,311
1	0,000	139,355	2206,714
1	0,000	139,355	2206,915
1	0,000	139,355	2207,117
1	0,000	139,355	2207,520
1	0,000	139,405	2207,620
1	0,000	139,405	2207,922
1	0,000	139,405	2208,124
1	0,000	139,405	2208,527
1	0,000	139,405	2208,728
1	0,000	139,454	2209,030
1	0,000	139,454	2209,232
1	0,000	139,454	2209,131
1	0,000	139,454	2209,735
1	0,000	139,454	2209,937
1	0,000	139,504	2210,239
1	0,000	139,504	2210,440
1	0,000	139,504	2210,742
1	0,000	139,504	2210,843
1	0,000	139,504	2211,044
1	0,000	139,555	2211,548
1	0,000	139,555	2211,749
1	0,000	139,555	2212,051
1	0,000	139,555	2212,253
1	0,000	139,555	2212,454
1	0,000	139,605	2212,756
1	0,000	139,605	2213,058
1	0,000	139,605	2213,260
1	0,000	139,605	2213,562
1	0,000	139,605	2213,763
1	0,000	139,654	2214,166
1	0,000	139,654	2214,368
1	0,000	139,654	2214,670
1	0,000	139,654	2214,871
1	0,000	139,654	2215,073
1	0,000	139,705	2215,375
1	0,000	139,705	2215,677
1	0,000	139,705	2215,878
1	0,000	139,705	2216,080
1	0,000	139,705	2216,382
1	0,000	139,755	2216,583
1	0,000	139,755	2216,885
1	0,000	139,755	2217,187
1	0,000	139,755	2217,389
1	0,000	139,755	2217,691
1	0,000	139,805	2217,892
1	0,000	139,805	2218,195
1	0,000	139,805	2218,396
1	0,000	139,805	2218,497
1	0,000	139,805	2219,000
1	0,000	139,855	2219,202
1	0,000	139,855	2219,403
1	0,000	139,855	2219,705
1	0,000	139,855	2220,007
1	0,000	139,855	2220,209
1	0,000	139,903	2220,410
1	0,000	139,903	2220,712
1	0,000	139,903	2220,813
1	0,000	139,903	2220,914
1	0,000	139,903	2221,317
1	0,000	139,942	2221,417
1	0,000	139,942	2221,619
1	0,000	139,942	2221,820
1	0,000	139,942	2221,921
1	0,000	139,942	2221,921
1	0,000	139,971	2222,122
1	0,000	139,971	2222,223
1	0,000	139,971	2222,424
1	0,000	139,971	2222,525
1	0,000	139,971	2222,626
1	0,000	139,990	2222,726
1	0,000	139,990	2222,726
1	0,000	139,990	2222,827
1	0,000	139,990	2222,827
1	0,000	139,990	2222,928
1	0,000	139,999	2222,928
1	0,000	139,999	2222,928
1	0,000	139,999	2222,928
1	0,000	139,999	2222,928
1	0,000	139,999	2222,928
1	0,000	140,000	2222,928
