Col.n° Rot(deg) Lin(mm) CHR(um)
1	0,000	80,079	1329,950
1	0,000	80,079	1329,849
1	0,000	80,123	1329,950
1	0,000	80,123	1330,051
1	0,000	80,123	1330,051
1	0,000	80,123	1330,051
1	0,000	80,123	1330,151
1	0,000	80,173	1330,252
1	0,000	80,173	1330,252
1	0,000	80,173	1330,353
1	0,000	80,173	1330,353
1	0,000	80,173	1330,353
1	0,000	80,223	1330,453
1	0,000	80,223	1330,554
1	0,000	80,223	1330,554
1	0,000	80,223	1330,554
1	0,000	80,223	1330,554
1	0,000	80,273	1330,655
1	0,000	80,273	1330,756
1	0,000	80,273	1330,756
1	0,000	80,273	1330,756
1	0,000	80,273	1330,856
1	0,000	80,323	1330,856
1	0,000	80,323	1330,856
1	0,000	80,323	1330,856
1	0,000	80,323	1330,957
1	0,000	80,323	1331,058
1	0,000	80,373	1331,058
1	0,000	80,373	1331,058
1	0,000	80,373	1331,158
1	0,000	80,373	1331,158
1	0,000	80,373	1331,259
1	0,000	80,423	1331,259
1	0,000	80,423	1331,259
1	0,000	80,423	1331,259
1	0,000	80,423	1331,259
1	0,000	80,423	1331,360
1	0,000	80,473	1331,360
1	0,000	80,473	1331,561
1	0,000	80,473	1331,461
1	0,000	80,473	1331,561
1	0,000	80,473	1331,561
1	0,000	80,523	1331,662
1	0,000	80,523	1331,662
1	0,000	80,523	1331,662
1	0,000	80,523	1331,763
1	0,000	80,523	1331,763
1	0,000	80,573	1331,863
1	0,000	80,573	1331,863
1	0,000	80,573	1331,863
1	0,000	80,573	1331,964
1	0,000	80,573	1332,065
1	0,000	80,623	1332,166
1	0,000	80,623	1332,166
1	0,000	80,623	1332,166
1	0,000	80,623	1332,367
1	0,000	80,623	1332,266
1	0,000	80,673	1332,367
1	0,000	80,673	1332,266
1	0,000	80,673	1332,468
1	0,000	80,673	1332,367
1	0,000	80,673	1332,468
1	0,000	80,723	1332,367
1	0,000	80,723	1332,568
1	0,000	80,723	1332,568
1	0,000	80,723	1332,669
1	0,000	80,723	1332,770
1	0,000	80,723	1332,770
1	0,000	80,773	1332,770
1	0,000	80,773	1332,770
1	0,000	80,773	1332,870
1	0,000	80,773	1332,870
1	0,000	80,773	1332,971
1	0,000	80,824	1333,072
1	0,000	80,824	1332,971
1	0,000	80,824	1333,072
1	0,000	80,824	1333,173
1	0,000	80,824	1333,173
1	0,000	80,874	1333,173
1	0,000	80,874	1333,374
1	0,000	80,874	1333,273
1	0,000	80,874	1333,374
1	0,000	80,874	1333,374
1	0,000	80,924	1333,374
1	0,000	80,924	1333,575
1	0,000	80,924	1333,575
1	0,000	80,924	1333,676
1	0,000	80,924	1333,676
1	0,000	80,974	1333,575
1	0,000	80,974	1333,777
1	0,000	80,974	1333,777
1	0,000	80,974	1333,777
1	0,000	81,024	1333,878
1	0,000	81,024	1333,978
1	0,000	81,024	1333,978
1	0,000	81,024	1333,575
1	0,000	81,024	1334,079
1	0,000	81,024	1333,978
1	0,000	81,074	1333,978
1	0,000	81,074	1334,079
1	0,000	81,074	1334,180
1	0,000	81,074	1334,079
1	0,000	81,074	1334,280
1	0,000	81,124	1334,381
1	0,000	81,124	1334,381
1	0,000	81,124	1334,381
1	0,000	81,124	1334,381
1	0,000	81,124	1334,482
1	0,000	81,174	1334,482
1	0,000	81,174	1334,583
1	0,000	81,174	1334,583
1	0,000	81,174	1334,280
1	0,000	81,174	1334,683
1	0,000	81,224	1334,683
1	0,000	81,224	1334,784
1	0,000	81,224	1334,784
1	0,000	81,224	1334,885
1	0,000	81,224	1334,985
1	0,000	81,274	1334,985
1	0,000	81,274	1335,086
1	0,000	81,274	1335,086
1	0,000	81,274	1335,086
1	0,000	81,274	1335,086
1	0,000	81,324	1335,086
1	0,000	81,324	1335,187
1	0,000	81,324	1335,187
1	0,000	81,324	1335,388
1	0,000	81,324	1335,287
1	0,000	81,374	1335,287
1	0,000	81,374	1335,388
1	0,000	81,374	1335,388
1	0,000	81,374	1335,489
1	0,000	81,374	1335,590
1	0,000	81,425	1335,690
1	0,000	81,425	1335,690
1	0,000	81,425	1335,590
1	0,000	81,425	1335,892
1	0,000	81,425	1335,590
1	0,000	81,475	1335,892
1	0,000	81,475	1336,093
1	0,000	81,475	1336,093
1	0,000	81,475	1335,892
1	0,000	81,475	1335,892
1	0,000	81,525	1336,093
1	0,000	81,525	1336,194
1	0,000	81,525	1336,194
1	0,000	81,525	1336,295
1	0,000	81,525	1336,194
1	0,000	81,575	1336,395
1	0,000	81,575	1336,395
1	0,000	81,575	1336,395
1	0,000	81,575	1336,395
1	0,000	81,575	1336,496
1	0,000	81,625	1336,496
1	0,000	81,625	1336,597
1	0,000	81,625	1336,597
1	0,000	81,625	1336,697
1	0,000	81,625	1336,697
1	0,000	81,675	1336,798
1	0,000	81,675	1336,798
1	0,000	81,675	1336,798
1	0,000	81,675	1336,899
1	0,000	81,675	1336,899
1	0,000	81,725	1337,000
1	0,000	81,725	1336,697
1	0,000	81,725	1337,100
1	0,000	81,725	1337,201
1	0,000	81,725	1337,201
1	0,000	81,776	1337,100
1	0,000	81,776	1337,302
1	0,000	81,776	1337,302
1	0,000	81,776	1337,402
1	0,000	81,776	1337,302
1	0,000	81,826	1337,402
1	0,000	81,826	1337,503
1	0,000	81,826	1337,503
1	0,000	81,826	1337,604
1	0,000	81,826	1337,604
1	0,000	81,876	1337,704
1	0,000	81,876	1337,906
1	0,000	81,876	1337,906
1	0,000	81,876	1337,805
1	0,000	81,876	1337,805
1	0,000	81,926	1337,906
1	0,000	81,926	1337,906
1	0,000	81,926	1337,906
1	0,000	81,926	1338,007
1	0,000	81,926	1338,007
1	0,000	81,976	1338,107
1	0,000	81,976	1338,208
1	0,000	81,976	1338,208
1	0,000	81,976	1338,309
1	0,000	81,976	1338,309
1	0,000	82,027	1338,309
1	0,000	82,027	1338,409
1	0,000	82,027	1338,409
1	0,000	82,027	1338,409
1	0,000	82,027	1338,409
1	0,000	82,078	1338,611
1	0,000	82,078	1338,510
1	0,000	82,078	1338,611
1	0,000	82,078	1338,712
1	0,000	82,078	1338,712
1	0,000	82,128	1338,812
1	0,000	82,128	1338,712
1	0,000	82,128	1338,812
1	0,000	82,128	1338,913
1	0,000	82,128	1339,014
1	0,000	82,178	1339,014
1	0,000	82,178	1339,014
1	0,000	82,178	1339,114
1	0,000	82,178	1339,215
1	0,000	82,178	1339,215
1	0,000	82,228	1339,316
1	0,000	82,228	1339,417
1	0,000	82,228	1339,316
1	0,000	82,228	1339,517
1	0,000	82,228	1339,517
1	0,000	82,278	1339,114
1	0,000	82,278	1339,618
1	0,000	82,278	1339,719
1	0,000	82,278	1339,618
1	0,000	82,278	1339,719
1	0,000	82,328	1339,819
1	0,000	82,328	1339,819
1	0,000	82,328	1339,719
1	0,000	82,328	1339,819
1	0,000	82,328	1339,920
1	0,000	82,378	1340,021
1	0,000	82,378	1340,222
1	0,000	82,378	1340,323
1	0,000	82,378	1340,222
1	0,000	82,378	1340,222
1	0,000	82,428	1340,222
1	0,000	82,428	1340,323
1	0,000	82,428	1340,323
1	0,000	82,428	1340,424
1	0,000	82,428	1340,424
1	0,000	82,478	1340,524
1	0,000	82,478	1340,524
1	0,000	82,478	1340,524
1	0,000	82,478	1340,625
1	0,000	82,478	1340,625
1	0,000	82,528	1340,726
1	0,000	82,528	1340,625
1	0,000	82,528	1340,927
1	0,000	82,528	1340,826
1	0,000	82,528	1340,826
1	0,000	82,578	1340,927
1	0,000	82,578	1340,826
1	0,000	82,578	1341,028
1	0,000	82,578	1341,129
1	0,000	82,578	1341,129
1	0,000	82,629	1341,229
1	0,000	82,629	1341,229
1	0,000	82,629	1341,330
1	0,000	82,629	1341,129
1	0,000	82,629	1341,833
1	0,000	82,678	1341,531
1	0,000	82,678	1341,531
1	0,000	82,678	1341,531
1	0,000	82,678	1341,632
1	0,000	82,678	1341,632
1	0,000	82,728	1341,733
1	0,000	82,728	1341,833
1	0,000	82,728	1341,833
1	0,000	82,728	1341,833
1	0,000	82,728	1341,833
1	0,000	82,778	1341,934
1	0,000	82,778	1342,035
1	0,000	82,778	1341,833
1	0,000	82,778	1342,136
1	0,000	82,778	1342,236
1	0,000	82,829	1342,337
1	0,000	82,829	1342,337
1	0,000	82,829	1342,438
1	0,000	82,829	1342,438
1	0,000	82,829	1342,438
1	0,000	82,878	1342,538
1	0,000	82,878	1342,538
1	0,000	82,878	1342,740
1	0,000	82,878	1342,740
1	0,000	82,878	1342,841
1	0,000	82,929	1342,841
1	0,000	82,929	1342,941
1	0,000	82,929	1342,941
1	0,000	82,929	1342,841
1	0,000	82,929	1343,042
1	0,000	82,979	1343,042
1	0,000	82,979	1342,941
1	0,000	82,979	1343,143
1	0,000	82,979	1343,143
1	0,000	82,979	1343,243
1	0,000	83,029	1343,143
1	0,000	83,029	1343,243
1	0,000	83,029	1343,243
1	0,000	83,029	1343,344
1	0,000	83,029	1343,445
1	0,000	83,079	1343,546
1	0,000	83,079	1343,546
1	0,000	83,079	1343,546
1	0,000	83,079	1343,546
1	0,000	83,079	1343,445
1	0,000	83,130	1343,646
1	0,000	83,130	1343,747
1	0,000	83,130	1343,747
1	0,000	83,130	1343,848
1	0,000	83,130	1343,848
1	0,000	83,179	1343,848
1	0,000	83,179	1344,150
1	0,000	83,179	1344,150
1	0,000	83,179	1344,150
1	0,000	83,179	1344,150
1	0,000	83,230	1344,250
1	0,000	83,230	1344,351
1	0,000	83,230	1344,250
1	0,000	83,230	1344,351
1	0,000	83,230	1344,250
1	0,000	83,280	1344,553
1	0,000	83,280	1344,553
1	0,000	83,280	1344,553
1	0,000	83,280	1344,653
1	0,000	83,280	1344,855
1	0,000	83,329	1344,855
1	0,000	83,329	1344,653
1	0,000	83,329	1344,855
1	0,000	83,329	1344,855
1	0,000	83,329	1344,855
1	0,000	83,379	1344,653
1	0,000	83,379	1345,056
1	0,000	83,379	1345,056
1	0,000	83,379	1345,157
1	0,000	83,379	1345,258
1	0,000	83,429	1345,358
1	0,000	83,429	1345,358
1	0,000	83,429	1345,358
1	0,000	83,429	1345,459
1	0,000	83,429	1345,560
1	0,000	83,479	1345,560
1	0,000	83,479	1345,660
1	0,000	83,479	1345,660
1	0,000	83,479	1345,761
1	0,000	83,479	1345,660
1	0,000	83,529	1345,862
1	0,000	83,529	1345,862
1	0,000	83,529	1346,063
1	0,000	83,529	1346,265
1	0,000	83,529	1346,164
1	0,000	83,580	1346,164
1	0,000	83,580	1346,164
1	0,000	83,580	1346,265
1	0,000	83,580	1346,265
1	0,000	83,580	1346,265
1	0,000	83,630	1346,365
1	0,000	83,630	1346,365
1	0,000	83,630	1346,466
1	0,000	83,630	1346,466
1	0,000	83,630	1346,466
1	0,000	83,680	1346,567
1	0,000	83,680	1346,567
1	0,000	83,680	1346,768
1	0,000	83,680	1346,768
1	0,000	83,680	1346,768
1	0,000	83,730	1346,970
1	0,000	83,730	1346,970
1	0,000	83,730	1347,070
1	0,000	83,730	1347,070
1	0,000	83,730	1347,272
1	0,000	83,780	1347,171
1	0,000	83,780	1347,171
1	0,000	83,780	1347,171
1	0,000	83,780	1347,272
1	0,000	83,780	1347,473
1	0,000	83,830	1347,372
1	0,000	83,830	1347,372
1	0,000	83,830	1347,473
1	0,000	83,830	1347,574
1	0,000	83,830	1347,675
1	0,000	83,880	1347,675
1	0,000	83,880	1347,675
1	0,000	83,880	1347,574
1	0,000	83,880	1347,876
1	0,000	83,880	1347,876
1	0,000	83,930	1347,977
1	0,000	83,930	1348,178
1	0,000	83,930	1348,279
1	0,000	83,930	1347,977
1	0,000	83,930	1348,279
1	0,000	83,981	1348,279
1	0,000	83,981	1348,077
1	0,000	83,981	1348,380
1	0,000	83,981	1348,178
1	0,000	83,981	1348,178
1	0,000	84,031	1348,581
1	0,000	84,031	1348,682
1	0,000	84,031	1348,682
1	0,000	84,031	1348,782
1	0,000	84,031	1348,782
1	0,000	84,080	1348,883
1	0,000	84,080	1348,883
1	0,000	84,080	1348,984
1	0,000	84,080	1348,984
1	0,000	84,080	1349,084
1	0,000	84,131	1349,084
1	0,000	84,131	1349,185
1	0,000	84,131	1349,185
1	0,000	84,131	1349,185
1	0,000	84,131	1349,286
1	0,000	84,180	1349,286
1	0,000	84,180	1349,387
1	0,000	84,180	1349,387
1	0,000	84,180	1349,487
1	0,000	84,180	1349,588
1	0,000	84,231	1349,487
1	0,000	84,231	1349,689
1	0,000	84,231	1349,487
1	0,000	84,231	1349,890
1	0,000	84,231	1349,890
1	0,000	84,280	1349,991
1	0,000	84,280	1350,092
1	0,000	84,280	1350,092
1	0,000	84,280	1349,588
1	0,000	84,280	1350,192
1	0,000	84,331	1350,293
1	0,000	84,331	1350,293
1	0,000	84,331	1350,394
1	0,000	84,331	1350,394
1	0,000	84,331	1350,394
1	0,000	84,380	1350,595
1	0,000	84,380	1350,494
1	0,000	84,380	1350,595
1	0,000	84,380	1350,595
1	0,000	84,380	1350,797
1	0,000	84,431	1350,797
1	0,000	84,431	1350,797
1	0,000	84,431	1350,897
1	0,000	84,431	1350,998
1	0,000	84,431	1350,998
1	0,000	84,481	1350,998
1	0,000	84,481	1351,099
1	0,000	84,481	1351,099
1	0,000	84,481	1351,300
1	0,000	84,481	1351,300
1	0,000	84,531	1351,300
1	0,000	84,531	1351,401
1	0,000	84,531	1351,401
1	0,000	84,531	1351,501
1	0,000	84,531	1351,602
1	0,000	84,581	1351,602
1	0,000	84,581	1351,703
1	0,000	84,581	1351,804
1	0,000	84,581	1351,804
1	0,000	84,581	1351,904
1	0,000	84,631	1351,804
1	0,000	84,631	1352,005
1	0,000	84,631	1352,005
1	0,000	84,631	1352,206
1	0,000	84,631	1352,005
1	0,000	84,681	1352,509
1	0,000	84,681	1352,307
1	0,000	84,681	1352,408
1	0,000	84,681	1352,408
1	0,000	84,681	1352,408
1	0,000	84,731	1352,609
1	0,000	84,731	1352,509
1	0,000	84,731	1352,609
1	0,000	84,731	1352,609
1	0,000	84,731	1352,710
1	0,000	84,781	1352,710
1	0,000	84,781	1352,811
1	0,000	84,781	1352,911
1	0,000	84,781	1353,012
1	0,000	84,781	1353,012
1	0,000	84,831	1353,012
1	0,000	84,831	1353,113
1	0,000	84,831	1353,214
1	0,000	84,831	1353,214
1	0,000	84,831	1353,415
1	0,000	84,881	1353,314
1	0,000	84,881	1353,415
1	0,000	84,881	1353,516
1	0,000	84,881	1353,415
1	0,000	84,881	1353,516
1	0,000	84,932	1353,717
1	0,000	84,932	1353,717
1	0,000	84,932	1353,818
1	0,000	84,932	1353,918
1	0,000	84,932	1353,918
1	0,000	84,932	1353,918
1	0,000	84,982	1353,616
1	0,000	84,982	1354,019
1	0,000	84,982	1354,221
1	0,000	84,982	1354,221
1	0,000	84,982	1354,221
1	0,000	85,032	1354,321
1	0,000	85,032	1354,321
1	0,000	85,032	1354,422
1	0,000	85,032	1354,422
1	0,000	85,082	1354,523
1	0,000	85,082	1354,523
1	0,000	85,082	1354,724
1	0,000	85,082	1354,724
1	0,000	85,082	1354,724
1	0,000	85,082	1354,926
1	0,000	85,132	1354,825
1	0,000	85,132	1354,926
1	0,000	85,132	1354,926
1	0,000	85,132	1354,926
1	0,000	85,181	1355,026
1	0,000	85,181	1355,127
1	0,000	85,181	1355,228
1	0,000	85,181	1355,328
1	0,000	85,181	1355,328
1	0,000	85,181	1355,429
1	0,000	85,232	1355,530
1	0,000	85,232	1355,530
1	0,000	85,232	1355,630
1	0,000	85,232	1355,630
1	0,000	85,232	1355,731
1	0,000	85,282	1355,731
1	0,000	85,282	1355,832
1	0,000	85,282	1355,933
1	0,000	85,282	1356,033
1	0,000	85,282	1356,033
1	0,000	85,332	1356,134
1	0,000	85,332	1356,134
1	0,000	85,332	1356,235
1	0,000	85,332	1356,134
1	0,000	85,332	1356,235
1	0,000	85,382	1356,436
1	0,000	85,382	1356,436
1	0,000	85,382	1356,436
1	0,000	85,382	1356,537
1	0,000	85,382	1356,638
1	0,000	85,432	1356,638
1	0,000	85,432	1356,638
1	0,000	85,432	1356,738
1	0,000	85,432	1356,839
1	0,000	85,432	1356,940
1	0,000	85,482	1357,040
1	0,000	85,482	1357,040
1	0,000	85,482	1357,141
1	0,000	85,482	1357,242
1	0,000	85,482	1357,242
1	0,000	85,532	1357,242
1	0,000	85,532	1357,343
1	0,000	85,532	1357,343
1	0,000	85,532	1357,544
1	0,000	85,532	1357,544
1	0,000	85,582	1357,443
1	0,000	85,582	1357,645
1	0,000	85,582	1357,645
1	0,000	85,582	1357,745
1	0,000	85,632	1357,846
1	0,000	85,632	1357,846
1	0,000	85,632	1357,947
1	0,000	85,632	1358,047
1	0,000	85,632	1358,047
1	0,000	85,632	1358,047
1	0,000	85,682	1358,249
1	0,000	85,682	1358,148
1	0,000	85,682	1358,249
1	0,000	85,682	1358,350
1	0,000	85,682	1358,249
1	0,000	85,732	1358,450
1	0,000	85,732	1358,652
1	0,000	85,732	1358,652
1	0,000	85,732	1358,652
1	0,000	85,732	1358,752
1	0,000	85,782	1358,853
1	0,000	85,782	1358,853
1	0,000	85,782	1358,853
1	0,000	85,782	1359,055
1	0,000	85,782	1359,155
1	0,000	85,832	1359,055
1	0,000	85,832	1359,155
1	0,000	85,832	1359,256
1	0,000	85,832	1359,256
1	0,000	85,832	1359,357
1	0,000	85,882	1359,357
1	0,000	85,882	1359,457
1	0,000	85,882	1359,457
1	0,000	85,882	1359,558
1	0,000	85,882	1359,659
1	0,000	85,933	1359,659
1	0,000	85,933	1359,760
1	0,000	85,933	1359,760
1	0,000	85,933	1359,961
1	0,000	85,933	1359,860
1	0,000	85,983	1359,961
1	0,000	85,983	1360,062
1	0,000	85,983	1360,062
1	0,000	85,983	1360,364
1	0,000	85,983	1360,162
1	0,000	86,033	1360,364
1	0,000	86,033	1360,364
1	0,000	86,033	1360,464
1	0,000	86,033	1360,464
1	0,000	86,033	1360,565
1	0,000	86,083	1360,565
1	0,000	86,083	1360,666
1	0,000	86,083	1360,767
1	0,000	86,083	1360,867
1	0,000	86,083	1360,867
1	0,000	86,134	1361,069
1	0,000	86,134	1360,968
1	0,000	86,134	1361,069
1	0,000	86,134	1361,169
1	0,000	86,134	1361,169
1	0,000	86,184	1361,371
1	0,000	86,184	1361,371
1	0,000	86,184	1361,472
1	0,000	86,184	1361,371
1	0,000	86,184	1361,371
1	0,000	86,234	1361,572
1	0,000	86,234	1361,572
1	0,000	86,234	1361,673
1	0,000	86,234	1361,673
1	0,000	86,234	1361,774
1	0,000	86,285	1361,774
1	0,000	86,285	1361,975
1	0,000	86,285	1361,975
1	0,000	86,285	1361,975
1	0,000	86,285	1362,076
1	0,000	86,335	1362,076
1	0,000	86,335	1362,177
1	0,000	86,335	1362,177
1	0,000	86,335	1361,874
1	0,000	86,335	1362,579
1	0,000	86,385	1362,579
1	0,000	86,385	1362,579
1	0,000	86,385	1362,579
1	0,000	86,385	1362,781
1	0,000	86,385	1362,680
1	0,000	86,435	1362,781
1	0,000	86,435	1362,982
1	0,000	86,435	1362,982
1	0,000	86,435	1363,083
1	0,000	86,435	1363,083
1	0,000	86,485	1363,184
1	0,000	86,485	1363,083
1	0,000	86,485	1363,184
1	0,000	86,485	1363,284
1	0,000	86,485	1363,385
1	0,000	86,535	1363,385
1	0,000	86,535	1363,385
1	0,000	86,535	1363,486
1	0,000	86,535	1363,486
1	0,000	86,535	1363,788
1	0,000	86,586	1363,788
1	0,000	86,586	1363,687
1	0,000	86,586	1363,889
1	0,000	86,586	1363,989
1	0,000	86,586	1364,191
1	0,000	86,636	1363,284
1	0,000	86,636	1363,385
1	0,000	86,636	1363,788
1	0,000	86,636	1363,586
1	0,000	86,636	1364,090
1	0,000	86,686	1364,594
1	0,000	86,686	1364,392
1	0,000	86,686	1364,493
1	0,000	86,686	1364,594
1	0,000	86,686	1364,594
1	0,000	86,736	1364,594
1	0,000	86,736	1364,795
1	0,000	86,736	1364,795
1	0,000	86,736	1364,795
1	0,000	86,736	1364,795
1	0,000	86,786	1364,896
1	0,000	86,786	1365,097
1	0,000	86,786	1365,097
1	0,000	86,786	1365,198
1	0,000	86,786	1365,198
1	0,000	86,836	1365,298
1	0,000	86,836	1365,298
1	0,000	86,836	1365,399
1	0,000	86,836	1365,500
1	0,000	86,836	1365,500
1	0,000	86,885	1365,601
1	0,000	86,885	1365,701
1	0,000	86,885	1365,701
1	0,000	86,885	1365,802
1	0,000	86,885	1365,903
1	0,000	86,936	1366,003
1	0,000	86,936	1365,903
1	0,000	86,936	1366,003
1	0,000	86,936	1366,104
1	0,000	86,936	1366,205
1	0,000	86,986	1366,205
1	0,000	86,986	1366,306
1	0,000	86,986	1366,406
1	0,000	86,986	1366,406
1	0,000	86,986	1366,608
1	0,000	87,037	1366,708
1	0,000	87,037	1366,708
1	0,000	87,037	1366,809
1	0,000	87,037	1366,708
1	0,000	87,037	1366,809
1	0,000	87,087	1366,809
1	0,000	87,087	1367,010
1	0,000	87,087	1367,010
1	0,000	87,087	1367,010
1	0,000	87,087	1367,212
1	0,000	87,136	1367,212
1	0,000	87,136	1367,313
1	0,000	87,136	1367,313
1	0,000	87,136	1367,413
1	0,000	87,136	1367,413
1	0,000	87,187	1367,212
1	0,000	87,187	1367,615
1	0,000	87,187	1367,715
1	0,000	87,187	1367,816
1	0,000	87,187	1367,816
1	0,000	87,237	1367,917
1	0,000	87,237	1368,018
1	0,000	87,237	1368,118
1	0,000	87,237	1368,118
1	0,000	87,237	1368,219
1	0,000	87,287	1368,219
1	0,000	87,287	1368,320
1	0,000	87,287	1368,320
1	0,000	87,287	1368,420
1	0,000	87,287	1368,420
1	0,000	87,337	1368,622
1	0,000	87,337	1368,622
1	0,000	87,337	1368,723
1	0,000	87,337	1368,723
1	0,000	87,337	1368,823
1	0,000	87,388	1368,823
1	0,000	87,388	1368,924
1	0,000	87,388	1369,025
1	0,000	87,388	1369,125
1	0,000	87,388	1369,125
1	0,000	87,438	1369,125
1	0,000	87,438	1369,226
1	0,000	87,438	1369,226
1	0,000	87,438	1369,427
1	0,000	87,438	1369,427
1	0,000	87,487	1369,528
1	0,000	87,487	1369,629
1	0,000	87,487	1369,528
1	0,000	87,487	1369,629
1	0,000	87,487	1369,830
1	0,000	87,538	1369,931
1	0,000	87,538	1369,730
1	0,000	87,538	1370,032
1	0,000	87,538	1370,132
1	0,000	87,538	1370,132
1	0,000	87,587	1370,132
1	0,000	87,587	1370,233
1	0,000	87,587	1370,334
1	0,000	87,587	1370,334
1	0,000	87,587	1370,334
1	0,000	87,638	1370,535
1	0,000	87,638	1370,535
1	0,000	87,638	1370,636
1	0,000	87,638	1370,737
1	0,000	87,638	1370,837
1	0,000	87,687	1370,837
1	0,000	87,687	1370,938
1	0,000	87,687	1370,938
1	0,000	87,687	1371,140
1	0,000	87,687	1371,140
1	0,000	87,738	1371,240
1	0,000	87,738	1371,240
1	0,000	87,738	1371,341
1	0,000	87,738	1371,442
1	0,000	87,738	1371,442
1	0,000	87,787	1371,643
1	0,000	87,787	1371,542
1	0,000	87,787	1371,542
1	0,000	87,787	1371,643
1	0,000	87,787	1372,046
1	0,000	87,838	1371,844
1	0,000	87,838	1371,844
1	0,000	87,838	1372,046
1	0,000	87,838	2019,397
1	0,000	87,838	1372,046
1	0,000	87,838	1372,247
1	0,000	87,888	1372,147
1	0,000	87,888	1372,247
1	0,000	87,888	1372,348
1	0,000	87,888	1372,348
1	0,000	87,888	1372,449
1	0,000	87,938	1372,449
1	0,000	87,938	1372,650
1	0,000	87,938	1372,650
1	0,000	87,938	1372,449
1	0,000	87,938	1372,852
1	0,000	87,988	1372,549
1	0,000	87,988	1372,952
1	0,000	87,988	1372,952
1	0,000	87,988	1373,053
1	0,000	87,988	1373,154
1	0,000	88,038	1373,254
1	0,000	88,038	1373,254
1	0,000	88,038	1373,355
1	0,000	88,038	1373,456
1	0,000	88,038	1373,456
1	0,000	88,088	1373,557
1	0,000	88,088	1373,657
1	0,000	88,088	1373,758
1	0,000	88,088	1373,859
1	0,000	88,088	1373,758
1	0,000	88,137	1373,859
1	0,000	88,137	1373,959
1	0,000	88,137	1374,060
1	0,000	88,137	1374,060
1	0,000	88,137	1374,161
1	0,000	88,188	1374,261
1	0,000	88,188	1374,261
1	0,000	88,188	1374,362
1	0,000	88,188	1374,463
1	0,000	88,188	1374,463
1	0,000	88,238	1374,564
1	0,000	88,238	1374,564
1	0,000	88,238	1374,765
1	0,000	88,238	1374,765
1	0,000	88,238	1374,966
1	0,000	88,287	1374,966
1	0,000	88,287	1375,067
1	0,000	88,287	1375,067
1	0,000	88,287	1375,067
1	0,000	88,287	1375,269
1	0,000	88,338	1375,269
1	0,000	88,338	1375,269
1	0,000	88,338	1375,470
1	0,000	88,338	1375,571
1	0,000	88,338	1375,470
1	0,000	88,388	1375,772
1	0,000	88,388	1375,671
1	0,000	88,388	1375,671
1	0,000	88,388	1375,873
1	0,000	88,388	1376,074
1	0,000	88,438	1375,974
1	0,000	88,438	1376,074
1	0,000	88,438	1376,175
1	0,000	88,438	1375,974
1	0,000	88,438	1376,376
1	0,000	88,487	1376,376
1	0,000	88,487	1376,477
1	0,000	88,487	1376,477
1	0,000	88,487	1376,578
1	0,000	88,487	1376,678
1	0,000	88,538	1376,678
1	0,000	88,538	1376,779
1	0,000	88,538	1376,779
1	0,000	88,538	1376,981
1	0,000	88,538	1376,981
1	0,000	88,588	1377,081
1	0,000	88,588	1377,182
1	0,000	88,588	1377,182
1	0,000	88,588	1377,383
1	0,000	88,588	1377,283
1	0,000	88,639	1377,484
1	0,000	88,639	1377,484
1	0,000	88,639	1377,585
1	0,000	88,639	1377,585
1	0,000	88,639	1377,686
1	0,000	88,688	1377,786
1	0,000	88,688	1377,585
1	0,000	88,688	1377,887
1	0,000	88,688	1377,988
1	0,000	88,688	1377,988
1	0,000	88,739	1378,088
1	0,000	88,739	1378,189
1	0,000	88,739	1378,189
1	0,000	88,739	1378,290
1	0,000	88,739	1378,391
1	0,000	88,788	1378,391
1	0,000	88,788	1378,491
1	0,000	88,788	1378,491
1	0,000	88,788	1378,693
1	0,000	88,788	1378,693
1	0,000	88,839	1378,793
1	0,000	88,839	1378,793
1	0,000	88,839	1378,894
1	0,000	88,839	1378,894
1	0,000	88,839	1378,894
1	0,000	88,888	1379,095
1	0,000	88,888	1379,196
1	0,000	88,888	1379,297
1	0,000	88,888	1379,398
1	0,000	88,888	1379,398
1	0,000	88,938	1379,398
1	0,000	88,938	1379,498
1	0,000	88,938	1379,599
1	0,000	88,938	1379,800
1	0,000	88,938	1379,800
1	0,000	88,989	1379,901
1	0,000	88,989	1380,002
1	0,000	88,989	1380,002
1	0,000	88,989	1380,103
1	0,000	88,989	1380,103
1	0,000	89,038	1380,304
1	0,000	89,038	1380,203
1	0,000	89,038	1380,405
1	0,000	89,038	1380,606
1	0,000	89,038	1380,606
1	0,000	89,089	1380,606
1	0,000	89,089	1380,606
1	0,000	89,089	1380,707
1	0,000	89,089	1380,807
1	0,000	89,089	1380,807
1	0,000	89,139	1381,009
1	0,000	89,139	1381,009
1	0,000	89,139	1381,110
1	0,000	89,139	1381,110
1	0,000	89,139	1381,210
1	0,000	89,189	1381,311
1	0,000	89,189	1381,412
1	0,000	89,189	1381,512
1	0,000	89,189	1381,512
1	0,000	89,189	1381,714
1	0,000	89,239	1381,613
1	0,000	89,239	1381,714
1	0,000	89,239	1381,915
1	0,000	89,239	1382,016
1	0,000	89,239	1382,117
1	0,000	89,289	1382,117
1	0,000	89,289	1382,117
1	0,000	89,289	1382,217
1	0,000	89,289	1382,419
1	0,000	89,289	1382,318
1	0,000	89,339	1382,419
1	0,000	89,339	1382,620
1	0,000	89,339	1382,721
1	0,000	89,339	1382,721
1	0,000	89,339	1382,822
1	0,000	89,388	1382,922
1	0,000	89,388	1383,023
1	0,000	89,388	1383,224
1	0,000	89,388	1383,124
1	0,000	89,388	1383,124
1	0,000	89,439	1382,721
1	0,000	89,439	1383,325
1	0,000	89,439	1383,426
1	0,000	89,439	1383,527
1	0,000	89,439	1383,527
1	0,000	89,489	1383,627
1	0,000	89,489	1383,627
1	0,000	89,489	1383,829
1	0,000	89,489	1383,829
1	0,000	89,489	1384,030
1	0,000	89,539	1384,030
1	0,000	89,539	1384,030
1	0,000	89,539	1384,131
1	0,000	89,539	1384,131
1	0,000	89,539	1384,232
1	0,000	89,589	1384,332
1	0,000	89,589	1384,232
1	0,000	89,589	1384,534
1	0,000	89,589	1384,534
1	0,000	89,589	1384,534
1	0,000	89,639	1384,634
1	0,000	89,639	1384,735
1	0,000	89,639	1384,836
1	0,000	89,639	1384,937
1	0,000	89,639	1384,937
1	0,000	89,689	1384,735
1	0,000	89,689	1385,138
1	0,000	89,689	1385,138
1	0,000	89,689	1385,239
1	0,000	89,689	1385,440
1	0,000	89,739	1385,541
1	0,000	89,739	1385,541
1	0,000	89,739	1385,541
1	0,000	89,739	1385,641
1	0,000	89,739	1385,742
1	0,000	89,789	1385,843
1	0,000	89,789	1385,944
1	0,000	89,789	1385,944
1	0,000	89,789	1386,044
1	0,000	89,789	1386,044
1	0,000	89,839	1386,246
1	0,000	89,839	1386,346
1	0,000	89,839	1386,246
1	0,000	89,839	1386,447
1	0,000	89,839	1386,447
1	0,000	89,889	1386,649
1	0,000	89,889	1386,749
1	0,000	89,889	1386,749
1	0,000	89,889	1386,850
1	0,000	89,889	1386,850
1	0,000	89,938	1386,951
1	0,000	89,938	1387,051
1	0,000	89,938	1387,152
1	0,000	89,938	1387,051
1	0,000	89,938	1386,951
1	0,000	89,988	1387,354
1	0,000	89,988	1387,454
1	0,000	89,988	1387,555
1	0,000	89,988	1387,454
1	0,000	89,988	1387,656
1	0,000	90,038	1387,656
1	0,000	90,038	1387,857
1	0,000	90,038	1387,857
1	0,000	90,038	1387,958
1	0,000	90,038	1388,058
1	0,000	90,088	1388,159
1	0,000	90,088	1388,159
1	0,000	90,088	1388,260
1	0,000	90,088	1388,361
1	0,000	90,088	1388,361
1	0,000	90,138	1388,461
1	0,000	90,138	1388,562
1	0,000	90,138	1388,663
1	0,000	90,138	1388,864
1	0,000	90,138	1388,864
1	0,000	90,189	1388,864
1	0,000	90,189	1389,066
1	0,000	90,189	1389,066
1	0,000	90,189	1389,267
1	0,000	90,189	1389,166
1	0,000	90,238	1389,267
1	0,000	90,238	1389,468
1	0,000	90,238	1389,368
1	0,000	90,238	1389,569
1	0,000	90,238	1389,569
1	0,000	90,288	1389,670
1	0,000	90,288	1389,771
1	0,000	90,288	1389,771
1	0,000	90,288	1389,871
1	0,000	90,288	1389,972
1	0,000	90,288	1389,871
1	0,000	90,339	1390,173
1	0,000	90,339	1390,173
1	0,000	90,339	1390,274
1	0,000	90,339	1390,475
1	0,000	90,339	1390,475
1	0,000	90,389	1390,475
1	0,000	90,389	1390,576
1	0,000	90,389	1390,677
1	0,000	90,389	1390,778
1	0,000	90,389	1390,778
1	0,000	90,440	1390,878
1	0,000	90,440	1390,979
1	0,000	90,440	1391,080
1	0,000	90,440	1391,180
1	0,000	90,440	1391,180
1	0,000	90,490	1391,382
1	0,000	90,490	1391,382
1	0,000	90,490	1391,483
1	0,000	90,490	1391,583
1	0,000	90,490	1391,583
1	0,000	90,540	1391,885
1	0,000	90,540	1391,785
1	0,000	90,540	1391,785
1	0,000	90,540	1391,986
1	0,000	90,540	1392,087
1	0,000	90,590	1391,986
1	0,000	90,590	1392,087
1	0,000	90,590	1392,187
1	0,000	90,590	1392,389
1	0,000	90,590	1392,389
1	0,000	90,641	1392,389
1	0,000	90,641	1392,490
1	0,000	90,641	1392,590
1	0,000	90,641	1392,691
1	0,000	90,641	1392,792
1	0,000	90,690	1392,792
1	0,000	90,690	1392,892
1	0,000	90,690	1392,993
1	0,000	90,690	1393,094
1	0,000	90,690	1393,094
1	0,000	90,741	1393,094
1	0,000	90,741	1393,295
1	0,000	90,741	1393,396
1	0,000	90,741	1393,396
1	0,000	90,741	1393,597
1	0,000	90,792	1393,597
1	0,000	90,792	1393,698
1	0,000	90,792	1393,799
1	0,000	90,792	1393,799
1	0,000	90,792	1394,000
1	0,000	90,842	1394,000
1	0,000	90,842	1394,202
1	0,000	90,842	1394,202
1	0,000	90,842	1394,202
1	0,000	90,842	1394,403
1	0,000	90,892	1394,403
1	0,000	90,892	1394,504
1	0,000	90,892	1394,604
1	0,000	90,892	1394,705
1	0,000	90,892	1394,604
1	0,000	90,943	1394,806
1	0,000	90,943	1394,806
1	0,000	90,943	1394,806
1	0,000	90,943	1395,108
1	0,000	90,943	1395,108
1	0,000	90,993	1395,108
1	0,000	90,993	1395,309
1	0,000	90,993	1395,410
1	0,000	90,993	1395,410
1	0,000	90,993	1395,511
1	0,000	91,042	1395,511
1	0,000	91,042	1395,612
1	0,000	91,042	1395,813
1	0,000	91,042	1395,914
1	0,000	91,042	1396,014
1	0,000	91,093	1396,115
1	0,000	91,093	1396,216
1	0,000	91,093	1396,216
1	0,000	91,093	1396,317
1	0,000	91,093	1396,317
1	0,000	91,143	1396,518
1	0,000	91,143	1396,518
1	0,000	91,143	1396,518
1	0,000	91,143	1396,619
1	0,000	91,143	1396,719
1	0,000	91,193	1396,820
1	0,000	91,193	1396,921
1	0,000	91,193	1397,021
1	0,000	91,193	1397,122
1	0,000	91,193	1397,223
1	0,000	91,243	1397,223
1	0,000	91,243	1397,122
1	0,000	91,243	1397,223
1	0,000	91,243	1397,525
1	0,000	91,243	1397,424
1	0,000	91,293	1397,626
1	0,000	91,293	1397,726
1	0,000	91,293	1397,827
1	0,000	91,293	1397,827
1	0,000	91,293	1398,029
1	0,000	91,344	1398,029
1	0,000	91,344	1398,129
1	0,000	91,344	1398,230
1	0,000	91,344	1398,331
1	0,000	91,344	1398,431
1	0,000	91,394	1398,431
1	0,000	91,394	1398,431
1	0,000	91,394	1398,532
1	0,000	91,394	1398,633
1	0,000	91,394	1398,734
1	0,000	91,444	1398,834
1	0,000	91,444	1398,935
1	0,000	91,444	1399,036
1	0,000	91,444	1399,136
1	0,000	91,444	1399,237
1	0,000	91,494	1399,237
1	0,000	91,494	1399,338
1	0,000	91,494	1399,438
1	0,000	91,494	1399,640
1	0,000	91,494	1399,640
1	0,000	91,545	1399,640
1	0,000	91,545	1399,741
1	0,000	91,545	1399,841
1	0,000	91,545	1399,942
1	0,000	91,545	1400,043
1	0,000	91,595	1400,043
1	0,000	91,595	1400,244
1	0,000	91,595	1400,244
1	0,000	91,595	1400,345
1	0,000	91,595	1399,942
1	0,000	91,645	1400,546
1	0,000	91,645	1400,546
1	0,000	91,645	1400,647
1	0,000	91,645	1400,748
1	0,000	91,645	1400,949
1	0,000	91,695	1400,848
1	0,000	91,695	1400,848
1	0,000	91,695	1401,050
1	0,000	91,695	1401,050
1	0,000	91,695	1401,151
1	0,000	91,745	1401,251
1	0,000	91,745	1401,352
1	0,000	91,745	1401,453
1	0,000	91,745	1401,553
1	0,000	91,745	1401,654
1	0,000	91,795	1401,654
1	0,000	91,795	1401,755
1	0,000	91,795	1401,855
1	0,000	91,795	1401,855
1	0,000	91,795	1401,956
1	0,000	91,845	1402,158
1	0,000	91,845	1402,158
1	0,000	91,845	1402,258
1	0,000	91,845	1402,258
1	0,000	91,845	1402,460
1	0,000	91,895	1402,460
1	0,000	91,895	1402,560
1	0,000	91,895	1402,560
1	0,000	91,895	1402,661
1	0,000	91,895	1402,762
1	0,000	91,946	1402,863
1	0,000	91,946	1402,963
1	0,000	91,946	1403,064
1	0,000	91,946	1402,863
1	0,000	91,946	1403,366
1	0,000	91,995	1402,863
1	0,000	91,995	1403,467
1	0,000	91,995	1403,467
1	0,000	91,995	1403,568
1	0,000	91,995	1403,769
1	0,000	92,046	1403,668
1	0,000	92,046	1403,769
1	0,000	92,046	1403,870
1	0,000	92,046	1403,568
1	0,000	92,046	1403,870
1	0,000	92,096	1404,172
1	0,000	92,096	1404,172
1	0,000	92,096	1404,373
1	0,000	92,096	1404,373
1	0,000	92,096	1404,474
1	0,000	92,146	1404,575
1	0,000	92,146	1404,675
1	0,000	92,146	1404,675
1	0,000	92,146	1404,877
1	0,000	92,146	1404,877
1	0,000	92,196	1404,977
1	0,000	92,196	1404,977
1	0,000	92,196	1405,280
1	0,000	92,196	1405,280
1	0,000	92,196	1405,280
1	0,000	92,246	1405,179
1	0,000	92,246	1405,481
1	0,000	92,246	1405,582
1	0,000	92,246	1405,682
1	0,000	92,246	1405,783
1	0,000	92,296	1405,682
1	0,000	92,296	1405,984
1	0,000	92,296	1405,884
1	0,000	92,296	1406,085
1	0,000	92,296	1406,085
1	0,000	92,346	1406,186
1	0,000	92,346	1406,387
1	0,000	92,346	1406,387
1	0,000	92,346	1406,387
1	0,000	92,346	1406,589
1	0,000	92,396	1406,689
1	0,000	92,396	1406,689
1	0,000	92,396	1406,891
1	0,000	92,396	1406,992
1	0,000	92,396	1406,891
1	0,000	92,446	1406,992
1	0,000	92,446	1407,092
1	0,000	92,446	1407,193
1	0,000	92,446	1407,394
1	0,000	92,446	1407,394
1	0,000	92,497	1407,495
1	0,000	92,497	1407,596
1	0,000	92,497	1407,697
1	0,000	92,497	1407,797
1	0,000	92,497	1407,898
1	0,000	92,546	1407,999
1	0,000	92,546	1407,999
1	0,000	92,546	1408,099
1	0,000	92,546	1408,200
1	0,000	92,546	1407,999
1	0,000	92,546	1408,401
1	0,000	92,597	1408,502
1	0,000	92,597	1408,603
1	0,000	92,597	1408,603
1	0,000	92,597	1408,603
1	0,000	92,647	1408,905
1	0,000	92,647	1409,006
1	0,000	92,647	1409,006
1	0,000	92,647	1409,006
1	0,000	92,647	1409,106
1	0,000	92,697	1409,006
1	0,000	92,697	1409,509
1	0,000	92,697	1409,509
1	0,000	92,697	1409,509
1	0,000	92,697	1409,610
1	0,000	92,747	1409,811
1	0,000	92,747	1409,711
1	0,000	92,747	1409,912
1	0,000	92,747	1409,811
1	0,000	92,747	1410,214
1	0,000	92,797	1410,114
1	0,000	92,797	1410,114
1	0,000	92,797	1410,214
1	0,000	92,797	1410,416
1	0,000	92,797	1410,416
1	0,000	92,848	1410,516
1	0,000	92,848	1410,516
1	0,000	92,848	1410,617
1	0,000	92,848	1410,818
1	0,000	92,848	1410,818
1	0,000	92,897	1411,020
1	0,000	92,897	1410,919
1	0,000	92,897	1411,121
1	0,000	92,897	1411,121
1	0,000	92,897	1411,221
1	0,000	92,947	1411,322
1	0,000	92,947	1411,322
1	0,000	92,947	1411,523
1	0,000	92,947	1411,523
1	0,000	92,947	1411,624
1	0,000	92,997	1411,725
1	0,000	92,997	1411,826
1	0,000	92,997	1411,826
1	0,000	92,997	1411,826
1	0,000	92,997	1412,027
1	0,000	93,047	1412,128
1	0,000	93,047	1412,228
1	0,000	93,047	1412,228
1	0,000	93,047	1412,329
1	0,000	93,047	1412,430
1	0,000	93,097	1412,531
1	0,000	93,097	1412,631
1	0,000	93,097	1412,631
1	0,000	93,097	1412,732
1	0,000	93,097	1412,933
1	0,000	93,147	1413,034
1	0,000	93,147	1413,034
1	0,000	93,147	1413,135
1	0,000	93,147	1413,235
1	0,000	93,147	1413,336
1	0,000	93,197	1413,336
1	0,000	93,197	1413,437
1	0,000	93,197	1413,638
1	0,000	93,197	1413,538
1	0,000	93,197	1413,739
1	0,000	93,247	1413,940
1	0,000	93,247	1414,041
1	0,000	93,247	1414,041
1	0,000	93,247	1414,041
1	0,000	93,247	1414,142
1	0,000	93,297	1414,243
1	0,000	93,297	1414,444
1	0,000	93,297	1414,444
1	0,000	93,297	1414,645
1	0,000	93,297	1414,645
1	0,000	93,347	1414,746
1	0,000	93,347	1414,948
1	0,000	93,347	1414,948
1	0,000	93,347	1414,948
1	0,000	93,347	1415,048
1	0,000	93,397	1415,149
1	0,000	93,397	1415,350
1	0,000	93,397	1415,350
1	0,000	93,397	1415,451
1	0,000	93,397	1415,451
1	0,000	93,447	1415,652
1	0,000	93,447	1415,652
1	0,000	93,447	1415,753
1	0,000	93,447	1415,753
1	0,000	93,447	1415,955
1	0,000	93,497	1415,955
1	0,000	93,497	1416,055
1	0,000	93,497	1416,156
1	0,000	93,497	1416,257
1	0,000	93,497	1416,357
1	0,000	93,547	1416,458
1	0,000	93,547	1416,559
1	0,000	93,547	1416,660
1	0,000	93,547	1416,660
1	0,000	93,547	1416,760
1	0,000	93,597	1416,962
1	0,000	93,597	1417,062
1	0,000	93,597	1417,062
1	0,000	93,597	1417,062
1	0,000	93,597	1417,264
1	0,000	93,647	1417,365
1	0,000	93,647	1417,566
1	0,000	93,647	1417,465
1	0,000	93,647	1417,566
1	0,000	93,647	1417,767
1	0,000	93,697	1417,767
1	0,000	93,697	1417,868
1	0,000	93,697	1417,969
1	0,000	93,697	1418,069
1	0,000	93,697	1418,170
1	0,000	93,747	1418,170
1	0,000	93,747	1418,271
1	0,000	93,747	1418,472
1	0,000	93,747	1418,472
1	0,000	93,747	1418,573
1	0,000	93,797	1418,573
1	0,000	93,797	1418,774
1	0,000	93,797	1418,976
1	0,000	93,797	1419,077
1	0,000	93,797	1419,077
1	0,000	93,847	1419,177
1	0,000	93,847	1419,177
1	0,000	93,847	1419,379
1	0,000	93,847	1419,379
1	0,000	93,847	1419,580
1	0,000	93,847	1419,580
1	0,000	93,897	1419,781
1	0,000	93,897	1419,781
1	0,000	93,897	1419,882
1	0,000	93,897	1419,681
1	0,000	93,947	1420,084
1	0,000	93,947	1420,084
1	0,000	93,947	1419,983
1	0,000	93,947	1420,285
1	0,000	93,947	1420,486
1	0,000	93,947	1420,587
1	0,000	93,997	1420,486
1	0,000	93,997	1420,587
1	0,000	93,997	1420,688
1	0,000	93,997	1420,789
1	0,000	94,047	1420,889
1	0,000	94,047	1420,990
1	0,000	94,047	1420,889
1	0,000	94,047	1421,091
1	0,000	94,047	1421,191
1	0,000	94,097	1421,292
1	0,000	94,097	1421,494
1	0,000	94,097	1421,494
1	0,000	94,097	1421,796
1	0,000	94,097	1421,796
1	0,000	94,097	1421,393
1	0,000	94,147	1421,896
1	0,000	94,147	1421,997
1	0,000	94,147	1422,098
1	0,000	94,147	1422,098
1	0,000	94,197	1422,299
1	0,000	94,197	1422,299
1	0,000	94,197	1422,400
1	0,000	94,197	1422,501
1	0,000	94,197	1422,601
1	0,000	94,247	1422,803
1	0,000	94,247	1422,803
1	0,000	94,247	1422,903
1	0,000	94,247	1422,903
1	0,000	94,247	1423,105
1	0,000	94,247	1423,206
1	0,000	94,297	1423,306
1	0,000	94,297	1423,407
1	0,000	94,297	1423,407
1	0,000	94,297	1423,508
1	0,000	94,297	1423,709
1	0,000	94,347	1423,407
1	0,000	94,347	1423,911
1	0,000	94,347	1424,011
1	0,000	94,347	1424,112
1	0,000	94,397	1424,011
1	0,000	94,397	1424,313
1	0,000	94,397	1424,313
1	0,000	94,397	1424,515
1	0,000	94,397	1424,615
1	0,000	94,447	1424,615
1	0,000	94,447	1424,615
1	0,000	94,447	1424,817
1	0,000	94,447	1424,918
1	0,000	94,447	1424,918
1	0,000	94,497	1425,018
1	0,000	94,497	1425,119
1	0,000	94,497	1425,220
1	0,000	94,497	1425,421
1	0,000	94,497	1425,421
1	0,000	94,547	1425,421
1	0,000	94,547	1425,723
1	0,000	94,547	1425,723
1	0,000	94,547	1425,723
1	0,000	94,547	1425,824
1	0,000	94,547	1425,925
1	0,000	94,597	1426,025
1	0,000	94,597	1426,126
1	0,000	94,597	1426,227
1	0,000	94,597	1426,328
1	0,000	94,647	1426,428
1	0,000	94,647	1426,630
1	0,000	94,647	1426,630
1	0,000	94,647	1426,730
1	0,000	94,647	1426,831
1	0,000	94,697	1426,932
1	0,000	94,697	1427,032
1	0,000	94,697	1427,133
1	0,000	94,697	1427,234
1	0,000	94,697	1427,234
1	0,000	94,697	1427,435
1	0,000	94,747	1427,435
1	0,000	94,747	1427,536
1	0,000	94,747	1427,637
1	0,000	94,747	1427,838
1	0,000	94,747	1428,040
1	0,000	94,797	1428,140
1	0,000	94,797	1428,140
1	0,000	94,797	1428,140
1	0,000	94,797	1428,241
1	0,000	94,797	1428,241
1	0,000	94,848	1428,442
1	0,000	94,848	1428,442
1	0,000	94,848	1428,543
1	0,000	94,848	1428,644
1	0,000	94,848	1428,745
1	0,000	94,897	1428,845
1	0,000	94,897	1428,946
1	0,000	94,897	1428,946
1	0,000	94,897	1429,147
1	0,000	94,897	1429,248
1	0,000	94,948	1429,349
1	0,000	94,948	1429,449
1	0,000	94,948	1429,449
1	0,000	94,948	1429,550
1	0,000	94,948	1429,752
1	0,000	94,998	1429,752
1	0,000	94,998	1429,852
1	0,000	94,998	1429,651
1	0,000	94,998	1430,154
1	0,000	94,998	1430,255
1	0,000	95,048	1430,255
1	0,000	95,048	1430,457
1	0,000	95,048	1430,457
1	0,000	95,048	1430,557
1	0,000	95,048	1430,859
1	0,000	95,099	1430,859
1	0,000	95,099	1430,859
1	0,000	95,099	1431,161
1	0,000	95,099	1431,161
1	0,000	95,099	1431,161
1	0,000	95,149	1431,262
1	0,000	95,149	1431,363
1	0,000	95,149	1431,363
1	0,000	95,149	1431,464
1	0,000	95,149	1431,564
1	0,000	95,199	1431,665
1	0,000	95,199	1431,766
1	0,000	95,199	1431,866
1	0,000	95,199	1431,766
1	0,000	95,199	1431,967
1	0,000	95,249	1432,169
1	0,000	95,249	1432,269
1	0,000	95,249	1432,471
1	0,000	95,249	1432,571
1	0,000	95,249	1432,471
1	0,000	95,299	1432,571
1	0,000	95,299	1432,773
1	0,000	95,299	1432,874
1	0,000	95,299	1432,874
1	0,000	95,299	1432,974
1	0,000	95,349	1433,075
1	0,000	95,349	1433,276
1	0,000	95,349	1433,377
1	0,000	95,349	1433,377
1	0,000	95,349	1433,478
1	0,000	95,399	1433,578
1	0,000	95,399	1433,679
1	0,000	95,399	1433,780
1	0,000	95,399	1433,881
1	0,000	95,399	1433,981
1	0,000	95,449	1434,082
1	0,000	95,449	1434,283
1	0,000	95,449	1434,485
1	0,000	95,449	1434,485
1	0,000	95,449	1434,485
1	0,000	95,499	1434,686
1	0,000	95,499	1434,787
1	0,000	95,499	1434,787
1	0,000	95,499	1434,888
1	0,000	95,549	1434,888
1	0,000	95,549	1435,089
1	0,000	95,549	1435,089
1	0,000	95,549	1435,190
1	0,000	95,549	1435,291
1	0,000	95,549	1435,391
1	0,000	95,599	1435,492
1	0,000	95,599	1435,593
1	0,000	95,599	1435,693
1	0,000	95,599	1435,492
1	0,000	95,599	1435,794
1	0,000	95,649	1435,995
1	0,000	95,649	1435,995
1	0,000	95,649	1436,197
1	0,000	95,649	1436,298
1	0,000	95,649	1436,197
1	0,000	95,700	1436,298
1	0,000	95,700	1436,600
1	0,000	95,700	1436,600
1	0,000	95,700	1436,700
1	0,000	95,700	1436,902
1	0,000	95,749	1436,902
1	0,000	95,749	1437,003
1	0,000	95,749	1437,103
1	0,000	95,749	1437,305
1	0,000	95,749	1437,305
1	0,000	95,799	1437,405
1	0,000	95,799	1437,506
1	0,000	95,799	1437,607
1	0,000	95,799	1437,708
1	0,000	95,799	1437,808
1	0,000	95,850	1437,909
1	0,000	95,850	1438,010
1	0,000	95,850	1438,110
1	0,000	95,850	1438,211
1	0,000	95,850	1438,211
1	0,000	95,899	1438,312
1	0,000	95,899	1438,312
1	0,000	95,899	1438,614
1	0,000	95,899	1438,715
1	0,000	95,899	1438,715
1	0,000	95,949	1438,916
1	0,000	95,949	1438,916
1	0,000	95,949	1439,017
1	0,000	95,949	1439,218
1	0,000	95,949	1439,319
1	0,000	96,000	1439,420
1	0,000	96,000	1439,420
1	0,000	96,000	1439,319
1	0,000	96,000	1439,520
1	0,000	96,000	1439,520
1	0,000	96,050	1439,923
1	0,000	96,050	1440,024
1	0,000	96,050	1440,024
1	0,000	96,050	1440,225
1	0,000	96,050	1440,326
1	0,000	96,100	1440,427
1	0,000	96,100	1440,527
1	0,000	96,100	1440,628
1	0,000	96,100	1440,729
1	0,000	96,100	1440,729
1	0,000	96,150	1440,829
1	0,000	96,150	1440,930
1	0,000	96,150	1441,031
1	0,000	96,150	1441,132
1	0,000	96,150	1441,333
1	0,000	96,200	1441,333
1	0,000	96,200	1441,434
1	0,000	96,200	1441,534
1	0,000	96,200	1441,635
1	0,000	96,200	1441,736
1	0,000	96,250	1441,837
1	0,000	96,250	1441,837
1	0,000	96,250	1442,038
1	0,000	96,250	1442,139
1	0,000	96,250	1442,139
1	0,000	96,300	1442,340
1	0,000	96,300	1442,441
1	0,000	96,300	1442,441
1	0,000	96,300	1442,642
1	0,000	96,300	1442,642
1	0,000	96,350	1442,743
1	0,000	96,350	1442,844
1	0,000	96,350	1443,045
1	0,000	96,350	1443,246
1	0,000	96,350	1443,146
1	0,000	96,400	1443,045
1	0,000	96,400	1443,347
1	0,000	96,400	1443,448
1	0,000	96,400	1443,549
1	0,000	96,400	1443,549
1	0,000	96,450	1443,750
1	0,000	96,450	1443,750
1	0,000	96,450	1443,951
1	0,000	96,450	1444,052
1	0,000	96,450	1444,153
1	0,000	96,501	1444,153
1	0,000	96,501	1444,254
1	0,000	96,501	1444,354
1	0,000	96,501	1444,455
1	0,000	96,501	1444,556
1	0,000	96,551	1444,757
1	0,000	96,551	1444,858
1	0,000	96,551	1444,858
1	0,000	96,551	1445,059
1	0,000	96,551	1445,059
1	0,000	96,600	1445,160
1	0,000	96,600	1445,361
1	0,000	96,600	1445,462
1	0,000	96,600	1445,563
1	0,000	96,600	1445,764
1	0,000	96,651	1445,764
1	0,000	96,651	1445,764
1	0,000	96,651	1445,663
1	0,000	96,651	1445,966
1	0,000	96,651	1446,066
1	0,000	96,702	1446,167
1	0,000	96,702	1446,268
1	0,000	96,702	1446,368
1	0,000	96,702	1446,469
1	0,000	96,702	1446,570
1	0,000	96,752	1446,671
1	0,000	96,752	1446,268
1	0,000	96,752	1447,073
1	0,000	96,752	1446,973
1	0,000	96,752	1447,073
1	0,000	96,802	1447,174
1	0,000	96,802	1447,275
1	0,000	96,802	1447,375
1	0,000	96,802	1447,476
1	0,000	96,802	1447,476
1	0,000	96,852	1447,678
1	0,000	96,852	1447,778
1	0,000	96,852	1447,879
1	0,000	96,852	1448,181
1	0,000	96,852	1448,181
1	0,000	96,902	1448,282
1	0,000	96,902	1448,181
1	0,000	96,902	1448,383
1	0,000	96,902	1448,483
1	0,000	96,902	1448,685
1	0,000	96,952	1448,785
1	0,000	96,952	1448,886
1	0,000	96,952	1448,785
1	0,000	96,952	1448,987
1	0,000	96,952	1449,088
1	0,000	97,002	1449,188
1	0,000	97,002	1449,390
1	0,000	97,002	1449,490
1	0,000	97,002	1449,591
1	0,000	97,002	1449,591
1	0,000	97,052	1449,792
1	0,000	97,052	1449,792
1	0,000	97,052	1449,893
1	0,000	97,052	1449,994
1	0,000	97,052	1450,195
1	0,000	97,102	1450,195
1	0,000	97,102	1450,296
1	0,000	97,102	1450,497
1	0,000	97,102	1450,497
1	0,000	97,102	1450,699
1	0,000	97,152	1450,800
1	0,000	97,152	1450,800
1	0,000	97,152	1450,900
1	0,000	97,152	1451,001
1	0,000	97,152	1451,102
1	0,000	97,202	1451,303
1	0,000	97,202	1451,303
1	0,000	97,202	1451,404
1	0,000	97,202	1451,505
1	0,000	97,202	1451,605
1	0,000	97,252	1451,807
1	0,000	97,252	1451,907
1	0,000	97,252	1451,907
1	0,000	97,252	1452,008
1	0,000	97,252	1452,109
1	0,000	97,302	1452,310
1	0,000	97,302	1452,411
1	0,000	97,302	1452,512
1	0,000	97,302	1452,512
1	0,000	97,302	1452,612
1	0,000	97,353	1452,713
1	0,000	97,353	1452,914
1	0,000	97,353	1453,015
1	0,000	97,353	1452,713
1	0,000	97,353	1453,217
1	0,000	97,403	1453,217
1	0,000	97,403	1453,317
1	0,000	97,403	1453,519
1	0,000	97,403	1453,519
1	0,000	97,403	1453,619
1	0,000	97,453	1453,720
1	0,000	97,453	1453,821
1	0,000	97,453	1454,022
1	0,000	97,453	1454,022
1	0,000	97,453	1454,123
1	0,000	97,503	1454,224
1	0,000	97,503	1454,425
1	0,000	97,503	1454,526
1	0,000	97,503	1454,727
1	0,000	97,503	1454,727
1	0,000	97,553	1454,828
1	0,000	97,553	1454,828
1	0,000	97,553	1454,929
1	0,000	97,553	1455,029
1	0,000	97,553	1455,231
1	0,000	97,604	1455,432
1	0,000	97,604	1455,432
1	0,000	97,604	1455,432
1	0,000	97,604	1455,734
1	0,000	97,604	1455,634
1	0,000	97,654	1455,835
1	0,000	97,654	1455,936
1	0,000	97,654	1456,036
1	0,000	97,654	1456,036
1	0,000	97,654	1456,137
1	0,000	97,704	1456,339
1	0,000	97,704	1456,439
1	0,000	97,704	1456,540
1	0,000	97,704	1456,540
1	0,000	97,704	1456,641
1	0,000	97,754	1456,842
1	0,000	97,754	1456,943
1	0,000	97,754	1456,943
1	0,000	97,754	1457,144
1	0,000	97,754	1457,245
1	0,000	97,804	1457,245
1	0,000	97,804	1457,446
1	0,000	97,804	1457,547
1	0,000	97,804	1457,748
1	0,000	97,804	1457,748
1	0,000	97,854	1457,849
1	0,000	97,854	1457,849
1	0,000	97,854	1458,051
1	0,000	97,854	1458,151
1	0,000	97,854	1458,252
1	0,000	97,904	1458,353
1	0,000	97,904	1458,353
1	0,000	97,904	1458,655
1	0,000	97,904	1458,655
1	0,000	97,904	1458,755
1	0,000	97,955	1458,856
1	0,000	97,955	1459,058
1	0,000	97,955	1459,058
1	0,000	97,955	1459,158
1	0,000	97,955	1459,360
1	0,000	98,004	1459,460
1	0,000	98,004	1459,460
1	0,000	98,004	1459,561
1	0,000	98,004	1459,662
1	0,000	98,004	1459,763
1	0,000	98,055	1459,964
1	0,000	98,055	1459,964
1	0,000	98,055	1460,065
1	0,000	98,055	1460,266
1	0,000	98,055	1460,367
1	0,000	98,105	1460,568
1	0,000	98,105	1460,568
1	0,000	98,105	1460,669
1	0,000	98,105	1460,770
1	0,000	98,105	1460,971
1	0,000	98,155	1461,072
1	0,000	98,155	1461,172
1	0,000	98,155	1461,172
1	0,000	98,155	1461,273
1	0,000	98,155	1461,475
1	0,000	98,205	1461,475
1	0,000	98,205	1461,676
1	0,000	98,205	1461,777
1	0,000	98,205	1461,877
1	0,000	98,205	1461,978
1	0,000	98,255	1462,079
1	0,000	98,255	1462,180
1	0,000	98,255	1462,180
1	0,000	98,255	1462,381
1	0,000	98,255	1462,381
1	0,000	98,305	1462,582
1	0,000	98,305	1462,683
1	0,000	98,305	1462,683
1	0,000	98,305	1462,985
1	0,000	98,305	1462,985
1	0,000	98,355	1463,086
1	0,000	98,355	1463,086
1	0,000	98,355	1463,187
1	0,000	98,355	1463,388
1	0,000	98,355	1463,589
1	0,000	98,404	1463,589
1	0,000	98,404	1463,791
1	0,000	98,404	1463,892
1	0,000	98,404	1464,093
1	0,000	98,404	1464,093
1	0,000	98,455	1464,194
1	0,000	98,455	1464,194
1	0,000	98,455	1464,496
1	0,000	98,455	1464,496
1	0,000	98,455	1464,496
1	0,000	98,505	1464,496
1	0,000	98,505	1464,798
1	0,000	98,505	1464,798
1	0,000	98,505	1464,697
1	0,000	98,505	1464,899
1	0,000	98,555	1464,999
1	0,000	98,555	1465,201
1	0,000	98,555	1465,201
1	0,000	98,555	1465,402
1	0,000	98,555	1465,503
1	0,000	98,555	1465,604
1	0,000	98,606	1465,704
1	0,000	98,606	1465,906
1	0,000	98,606	1466,107
1	0,000	98,606	1466,107
1	0,000	98,606	1466,309
1	0,000	98,656	1466,611
1	0,000	98,656	1466,510
1	0,000	98,656	1466,711
1	0,000	98,656	1466,711
1	0,000	98,656	1466,913
1	0,000	98,706	1467,014
1	0,000	98,706	1467,114
1	0,000	98,706	1467,316
1	0,000	98,706	1467,215
1	0,000	98,706	1467,416
1	0,000	98,756	1467,517
1	0,000	98,756	1467,618
1	0,000	98,756	1467,517
1	0,000	98,756	1467,416
1	0,000	98,756	1467,819
1	0,000	98,806	1467,819
1	0,000	98,806	1467,920
1	0,000	98,806	1468,021
1	0,000	98,806	1467,920
1	0,000	98,806	1468,323
1	0,000	98,856	1468,423
1	0,000	98,856	1468,625
1	0,000	98,856	1468,726
1	0,000	98,856	1468,826
1	0,000	98,856	1468,927
1	0,000	98,907	1469,028
1	0,000	98,907	1469,128
1	0,000	98,907	1469,128
1	0,000	98,907	1469,330
1	0,000	98,907	1469,531
1	0,000	98,957	1469,632
1	0,000	98,957	1469,733
1	0,000	98,957	1469,833
1	0,000	98,957	1469,934
1	0,000	98,957	1469,934
1	0,000	99,007	1470,135
1	0,000	99,007	1470,135
1	0,000	99,007	1470,337
1	0,000	99,007	1470,438
1	0,000	99,007	1470,538
1	0,000	99,057	1470,538
1	0,000	99,057	1470,740
1	0,000	99,057	1470,840
1	0,000	99,057	1470,941
1	0,000	99,057	1470,941
1	0,000	99,107	1471,143
1	0,000	99,107	1471,243
1	0,000	99,107	1471,445
1	0,000	99,107	1471,646
1	0,000	99,107	1471,747
1	0,000	99,158	1471,848
1	0,000	99,158	1471,948
1	0,000	99,158	1472,150
1	0,000	99,158	1472,150
1	0,000	99,158	1472,150
1	0,000	99,207	1472,351
1	0,000	99,207	1472,452
1	0,000	99,207	1472,552
1	0,000	99,207	1472,452
1	0,000	99,207	1472,653
1	0,000	99,258	1472,754
1	0,000	99,258	1472,855
1	0,000	99,258	1473,056
1	0,000	99,258	1473,157
1	0,000	99,258	1473,257
1	0,000	99,308	1473,257
1	0,000	99,308	1473,459
1	0,000	99,308	1473,660
1	0,000	99,308	1473,761
1	0,000	99,308	1473,862
1	0,000	99,358	1473,862
1	0,000	99,358	1474,063
1	0,000	99,358	1474,164
1	0,000	99,358	1474,265
1	0,000	99,358	1474,466
1	0,000	99,408	1474,365
1	0,000	99,408	1474,567
1	0,000	99,408	1474,567
1	0,000	99,408	1474,869
1	0,000	99,408	1474,768
1	0,000	99,458	1474,969
1	0,000	99,458	1475,171
1	0,000	99,458	1475,171
1	0,000	99,458	1475,272
1	0,000	99,458	1475,372
1	0,000	99,508	1475,473
1	0,000	99,508	1475,574
1	0,000	99,508	1475,574
1	0,000	99,508	1475,876
1	0,000	99,508	1475,876
1	0,000	99,558	1476,077
1	0,000	99,558	1476,178
1	0,000	99,558	1476,279
1	0,000	99,558	1475,674
1	0,000	99,558	1476,279
1	0,000	99,608	1476,782
1	0,000	99,608	1476,480
1	0,000	99,608	1476,883
1	0,000	99,608	1476,984
1	0,000	99,608	1477,084
1	0,000	99,658	1477,185
1	0,000	99,658	1477,286
1	0,000	99,658	1477,386
1	0,000	99,658	1477,487
1	0,000	99,658	1477,588
1	0,000	99,708	1477,689
1	0,000	99,708	1478,091
1	0,000	99,708	1477,991
1	0,000	99,708	1478,091
1	0,000	99,708	1478,192
1	0,000	99,758	1478,394
1	0,000	99,758	1478,394
1	0,000	99,758	1478,595
1	0,000	99,758	1478,696
1	0,000	99,758	1478,796
1	0,000	99,808	1478,796
1	0,000	99,808	1478,897
1	0,000	99,808	1478,998
1	0,000	99,808	1479,199
1	0,000	99,808	1479,300
1	0,000	99,858	1479,300
1	0,000	99,858	1479,501
1	0,000	99,858	1479,602
1	0,000	99,858	1479,602
1	0,000	99,858	1479,904
1	0,000	99,908	1479,904
1	0,000	99,908	1480,106
1	0,000	99,908	1480,206
1	0,000	99,908	1480,408
1	0,000	99,908	1480,408
1	0,000	99,958	1480,508
1	0,000	99,958	1480,609
1	0,000	99,958	1480,609
1	0,000	99,958	1480,710
1	0,000	99,958	1480,911
1	0,000	100,009	1480,911
1	0,000	100,009	1481,012
1	0,000	100,009	1481,314
1	0,000	100,009	1481,314
1	0,000	100,009	1481,415
1	0,000	100,059	1481,516
1	0,000	100,059	1481,717
1	0,000	100,059	1481,818
1	0,000	100,059	1481,918
1	0,000	100,059	1482,120
1	0,000	100,109	1482,220
1	0,000	100,109	1482,321
1	0,000	100,109	1482,523
1	0,000	100,109	1482,523
1	0,000	100,109	1482,724
1	0,000	100,158	1482,623
1	0,000	100,158	1483,026
1	0,000	100,158	1482,925
1	0,000	100,158	1483,026
1	0,000	100,158	1483,127
1	0,000	100,209	1483,228
1	0,000	100,209	1483,429
1	0,000	100,209	1483,530
1	0,000	100,209	1483,832
1	0,000	100,209	1483,731
1	0,000	100,259	1483,731
1	0,000	100,259	1484,033
1	0,000	100,259	1484,033
1	0,000	100,259	1484,235
1	0,000	100,259	1484,134
1	0,000	100,310	1484,436
1	0,000	100,310	1484,637
1	0,000	100,310	1484,637
1	0,000	100,310	1484,839
1	0,000	100,310	1484,940
1	0,000	100,360	1485,040
1	0,000	100,360	1485,141
1	0,000	100,360	1485,242
1	0,000	100,360	1485,342
1	0,000	100,360	1485,342
1	0,000	100,410	1485,645
1	0,000	100,410	1485,745
1	0,000	100,410	1485,645
1	0,000	100,410	1485,947
1	0,000	100,410	1485,846
1	0,000	100,460	1486,047
1	0,000	100,460	1486,047
1	0,000	100,460	1486,148
1	0,000	100,460	1486,249
1	0,000	100,460	1486,450
1	0,000	100,510	1486,450
1	0,000	100,510	1486,652
1	0,000	100,510	1486,853
1	0,000	100,510	1486,954
1	0,000	100,510	1487,357
1	0,000	100,561	1487,357
1	0,000	100,561	1487,256
1	0,000	100,561	1487,558
1	0,000	100,561	1487,558
1	0,000	100,561	1487,759
1	0,000	100,611	1487,961
1	0,000	100,611	1487,961
1	0,000	100,611	1487,860
1	0,000	100,611	1488,263
1	0,000	100,611	1488,464
1	0,000	100,660	1488,565
1	0,000	100,660	1488,565
1	0,000	100,660	1488,766
1	0,000	100,660	1488,867
1	0,000	100,660	1489,069
1	0,000	100,711	1489,069
1	0,000	100,711	1489,169
1	0,000	100,711	1489,169
1	0,000	100,711	1489,371
1	0,000	100,711	1489,471
1	0,000	100,761	1489,371
1	0,000	100,761	1489,673
1	0,000	100,761	1489,673
1	0,000	100,761	1489,774
1	0,000	100,761	1489,975
1	0,000	100,811	1489,975
1	0,000	100,811	1489,975
1	0,000	100,811	1490,277
1	0,000	100,811	1490,378
1	0,000	100,811	1490,378
1	0,000	100,861	1490,579
1	0,000	100,861	1490,680
1	0,000	100,861	1490,781
1	0,000	100,861	1490,881
1	0,000	100,861	1490,982
1	0,000	100,911	1491,083
1	0,000	100,911	1491,284
1	0,000	100,911	1491,183
1	0,000	100,911	1491,586
1	0,000	100,911	1491,586
1	0,000	100,961	1491,788
1	0,000	100,961	1492,090
1	0,000	100,961	1491,888
1	0,000	100,961	1491,989
1	0,000	100,961	1492,191
1	0,000	101,011	1492,291
1	0,000	101,011	1492,493
1	0,000	101,011	1492,493
1	0,000	101,011	1492,694
1	0,000	101,011	1492,896
1	0,000	101,061	1492,996
1	0,000	101,061	1493,097
1	0,000	101,061	1493,298
1	0,000	101,061	1493,298
1	0,000	101,061	1493,399
1	0,000	101,111	1493,600
1	0,000	101,111	1493,500
1	0,000	101,111	1493,802
1	0,000	101,111	1493,701
1	0,000	101,111	1493,802
1	0,000	101,161	1494,003
1	0,000	101,161	1494,003
1	0,000	101,161	1494,104
1	0,000	101,161	1494,305
1	0,000	101,161	1494,305
1	0,000	101,211	1494,608
1	0,000	101,211	1494,507
1	0,000	101,211	1494,708
1	0,000	101,211	1494,809
1	0,000	101,211	1494,608
1	0,000	101,261	1495,212
1	0,000	101,261	1495,413
1	0,000	101,261	1495,312
1	0,000	101,261	1495,615
1	0,000	101,261	1495,715
1	0,000	101,311	1495,715
1	0,000	101,311	1496,017
1	0,000	101,311	1496,017
1	0,000	101,311	1496,118
1	0,000	101,311	1496,420
1	0,000	101,361	1496,420
1	0,000	101,361	1496,320
1	0,000	101,361	1496,622
1	0,000	101,361	1496,722
1	0,000	101,361	1496,722
1	0,000	101,411	1496,924
1	0,000	101,411	1497,025
1	0,000	101,411	1497,226
1	0,000	101,411	1497,327
1	0,000	101,411	1497,327
1	0,000	101,461	1497,629
1	0,000	101,461	1497,629
1	0,000	101,461	1497,729
1	0,000	101,461	1498,032
1	0,000	101,461	1497,931
1	0,000	101,511	1498,132
1	0,000	101,511	1498,434
1	0,000	101,511	1498,434
1	0,000	101,511	1498,535
1	0,000	101,511	1498,535
1	0,000	101,561	1498,636
1	0,000	101,561	1498,837
1	0,000	101,561	1498,837
1	0,000	101,561	1498,938
1	0,000	101,561	1499,240
1	0,000	101,611	1499,039
1	0,000	101,611	1499,240
1	0,000	101,611	1499,542
1	0,000	101,611	1499,542
1	0,000	101,611	1499,643
1	0,000	101,661	1499,442
1	0,000	101,661	1500,046
1	0,000	101,661	1500,146
1	0,000	101,661	1500,146
1	0,000	101,661	1500,348
1	0,000	101,711	1500,549
1	0,000	101,711	1500,348
1	0,000	101,711	1500,650
1	0,000	101,711	1500,851
1	0,000	101,711	1500,851
1	0,000	101,761	1500,952
1	0,000	101,761	1501,154
1	0,000	101,761	1501,154
1	0,000	101,761	1501,355
1	0,000	101,761	1501,053
1	0,000	101,811	1501,556
1	0,000	101,811	1501,657
1	0,000	101,811	1501,758
1	0,000	101,811	1501,758
1	0,000	101,811	1502,261
1	0,000	101,862	1501,859
1	0,000	101,862	1502,261
1	0,000	101,862	1502,362
1	0,000	101,862	1502,664
1	0,000	101,862	1502,664
1	0,000	101,911	1502,765
1	0,000	101,911	1502,866
1	0,000	101,911	1502,966
1	0,000	101,911	1503,168
1	0,000	101,911	1503,268
1	0,000	101,911	1503,470
1	0,000	101,962	1503,470
1	0,000	101,962	1503,671
1	0,000	101,962	1503,772
1	0,000	101,962	1503,772
1	0,000	102,012	1503,973
1	0,000	102,012	1504,074
1	0,000	102,012	1504,175
1	0,000	102,012	1504,276
1	0,000	102,012	1504,376
1	0,000	102,062	1504,578
1	0,000	102,062	1504,578
1	0,000	102,062	1504,678
1	0,000	102,062	1504,880
1	0,000	102,062	1504,980
1	0,000	102,113	1505,081
1	0,000	102,113	1505,283
1	0,000	102,113	1505,383
1	0,000	102,113	1505,283
1	0,000	102,113	1505,585
1	0,000	102,162	1505,685
1	0,000	102,162	1505,887
1	0,000	102,162	1505,988
1	0,000	102,162	1506,088
1	0,000	102,162	1506,189
1	0,000	102,212	1506,290
1	0,000	102,212	1506,390
1	0,000	102,212	1506,592
1	0,000	102,212	1506,793
1	0,000	102,212	1506,793
1	0,000	102,262	1506,995
1	0,000	102,262	1507,095
1	0,000	102,262	1507,196
1	0,000	102,262	1507,397
1	0,000	102,262	1507,397
1	0,000	102,313	1507,599
1	0,000	102,313	1507,700
1	0,000	102,313	1507,800
1	0,000	102,313	1508,002
1	0,000	102,313	1508,102
1	0,000	102,362	1508,304
1	0,000	102,362	1508,807
1	0,000	102,362	1507,498
1	0,000	102,362	1509,814
1	0,000	102,362	1507,599
1	0,000	102,413	1508,807
1	0,000	102,413	1509,412
1	0,000	102,413	1508,405
1	0,000	102,413	1509,512
1	0,000	102,413	1509,009
1	0,000	102,463	1509,714
1	0,000	102,463	1509,210
1	0,000	102,463	1509,412
1	0,000	102,463	1510,217
1	0,000	102,463	1509,512
1	0,000	102,512	1509,915
1	0,000	102,512	1509,814
1	0,000	102,512	1510,721
1	0,000	102,512	1509,613
1	0,000	102,512	1510,318
1	0,000	102,563	1511,325
1	0,000	102,563	1510,117
1	0,000	102,563	1511,023
1	0,000	102,563	1510,822
1	0,000	102,563	1511,224
1	0,000	102,613	1511,224
1	0,000	102,613	1510,620
1	0,000	102,613	1512,131
1	0,000	102,613	1511,224
1	0,000	102,613	1511,325
1	0,000	102,663	1511,728
1	0,000	102,663	1511,929
1	0,000	102,663	1511,627
1	0,000	102,663	1511,728
1	0,000	102,663	1512,433
1	0,000	102,713	1512,030
1	0,000	102,713	1512,634
1	0,000	102,713	1512,433
1	0,000	102,713	1512,735
1	0,000	102,713	1513,037
1	0,000	102,713	1512,433
1	0,000	102,763	1513,440
1	0,000	102,763	1513,239
1	0,000	102,763	1513,138
1	0,000	102,763	1513,641
1	0,000	102,813	1513,641
1	0,000	102,813	1513,541
1	0,000	102,813	1513,943
1	0,000	102,813	1513,742
1	0,000	102,813	1513,943
1	0,000	102,813	1514,346
1	0,000	102,864	1514,145
1	0,000	102,864	1514,447
1	0,000	102,864	1514,648
1	0,000	102,864	1514,447
1	0,000	102,864	1514,850
1	0,000	102,914	1514,850
1	0,000	102,914	1514,850
1	0,000	102,914	1515,253
1	0,000	102,914	1515,253
1	0,000	102,914	1515,152
1	0,000	102,964	1515,555
1	0,000	102,964	1515,454
1	0,000	102,964	1515,656
1	0,000	102,964	1515,958
1	0,000	102,964	1515,756
1	0,000	103,014	1516,260
1	0,000	103,014	1516,159
1	0,000	103,014	1516,360
1	0,000	103,014	1516,763
1	0,000	103,014	1516,461
1	0,000	103,064	1516,663
1	0,000	103,064	1516,965
1	0,000	103,064	1517,065
1	0,000	103,064	1516,864
1	0,000	103,064	1517,368
1	0,000	103,114	1517,368
1	0,000	103,114	1517,368
1	0,000	103,114	1517,670
1	0,000	103,114	1517,468
1	0,000	103,114	1518,073
1	0,000	103,164	1517,972
1	0,000	103,164	1517,871
1	0,000	103,164	1518,475
1	0,000	103,164	1518,274
1	0,000	103,164	1518,375
1	0,000	103,214	1518,777
1	0,000	103,214	1518,777
1	0,000	103,214	1518,777
1	0,000	103,214	1518,979
1	0,000	103,214	1519,180
1	0,000	103,265	1519,180
1	0,000	103,265	1519,382
1	0,000	103,265	1518,576
1	0,000	103,265	1519,885
1	0,000	103,265	1519,785
1	0,000	103,314	1519,583
1	0,000	103,314	1519,986
1	0,000	103,314	1519,986
1	0,000	103,314	1520,187
1	0,000	103,314	1520,389
1	0,000	103,365	1520,288
1	0,000	103,365	1520,590
1	0,000	103,365	1520,590
1	0,000	103,365	1520,691
1	0,000	103,365	1520,993
1	0,000	103,415	1520,993
1	0,000	103,415	1521,094
1	0,000	103,415	1521,295
1	0,000	103,415	1521,497
1	0,000	103,415	1521,497
1	0,000	103,465	1521,799
1	0,000	103,465	1521,698
1	0,000	103,465	1521,799
1	0,000	103,465	1522,101
1	0,000	103,465	1522,101
1	0,000	103,515	1522,403
1	0,000	103,515	1522,504
1	0,000	103,515	1522,504
1	0,000	103,515	1522,806
1	0,000	103,515	1522,906
1	0,000	103,565	1522,906
1	0,000	103,565	1523,007
1	0,000	103,565	1523,007
1	0,000	103,565	1523,209
1	0,000	103,565	1523,410
1	0,000	103,615	1523,410
1	0,000	103,615	1523,611
1	0,000	103,615	1523,813
1	0,000	103,615	1523,813
1	0,000	103,615	1524,014
1	0,000	103,665	1524,115
1	0,000	103,665	1524,216
1	0,000	103,665	1524,417
1	0,000	103,665	1524,316
1	0,000	103,665	1524,619
1	0,000	103,716	1524,921
1	0,000	103,716	1524,820
1	0,000	103,716	1524,921
1	0,000	103,716	1525,223
1	0,000	103,716	1525,223
1	0,000	103,766	1525,223
1	0,000	103,766	1525,525
1	0,000	103,766	1525,525
1	0,000	103,766	1525,827
1	0,000	103,766	1525,726
1	0,000	103,816	1526,129
1	0,000	103,816	1526,230
1	0,000	103,816	1526,129
1	0,000	103,816	1526,431
1	0,000	103,816	1526,532
1	0,000	103,866	1526,331
1	0,000	103,866	1526,834
1	0,000	103,866	1527,036
1	0,000	103,866	1527,036
1	0,000	103,866	1527,136
1	0,000	103,916	1527,237
1	0,000	103,916	1527,438
1	0,000	103,916	1527,640
1	0,000	103,916	1527,740
1	0,000	103,916	1527,740
1	0,000	103,966	1527,942
1	0,000	103,966	1528,043
1	0,000	103,966	1528,244
1	0,000	103,966	1528,244
1	0,000	103,966	1528,345
1	0,000	104,017	1528,445
1	0,000	104,017	1528,848
1	0,000	104,017	1528,647
1	0,000	104,017	1529,050
1	0,000	104,017	1529,050
1	0,000	104,067	1529,150
1	0,000	104,067	1529,352
1	0,000	104,067	1529,453
1	0,000	104,067	1529,553
1	0,000	104,067	1529,654
1	0,000	104,116	1529,855
1	0,000	104,116	1529,855
1	0,000	104,116	1530,057
1	0,000	104,116	1530,157
1	0,000	104,116	1530,359
1	0,000	104,167	1530,460
1	0,000	104,167	1530,460
1	0,000	104,167	1530,762
1	0,000	104,167	1530,560
1	0,000	104,167	1530,963
1	0,000	104,217	1531,165
1	0,000	104,217	1531,165
1	0,000	104,217	1531,366
1	0,000	104,217	1531,567
1	0,000	104,217	1531,567
1	0,000	104,267	1531,769
1	0,000	104,267	1531,870
1	0,000	104,267	1531,970
1	0,000	104,267	1532,172
1	0,000	104,267	1532,272
1	0,000	104,318	1532,272
1	0,000	104,318	1532,574
1	0,000	104,318	1532,574
1	0,000	104,318	1532,776
1	0,000	104,318	1532,877
1	0,000	104,368	1532,877
1	0,000	104,368	1533,078
1	0,000	104,368	1533,279
1	0,000	104,368	1533,380
1	0,000	104,368	1533,380
1	0,000	104,418	1533,783
1	0,000	104,418	1533,682
1	0,000	104,418	1533,984
1	0,000	104,418	1534,085
1	0,000	104,418	1534,186
1	0,000	104,468	1534,387
1	0,000	104,468	1534,488
1	0,000	104,468	1534,589
1	0,000	104,468	1534,689
1	0,000	104,468	1534,790
1	0,000	104,519	1535,092
1	0,000	104,519	1535,193
1	0,000	104,519	1535,193
1	0,000	104,519	1535,394
1	0,000	104,519	1535,394
1	0,000	104,568	1535,294
1	0,000	104,568	1535,696
1	0,000	104,568	1535,999
1	0,000	104,568	1536,099
1	0,000	104,568	1536,301
1	0,000	104,618	1536,301
1	0,000	104,618	1536,401
1	0,000	104,618	1536,804
1	0,000	104,618	1536,502
1	0,000	104,618	1536,804
1	0,000	104,668	1536,905
1	0,000	104,668	1536,703
1	0,000	104,668	1537,006
1	0,000	104,668	1537,308
1	0,000	104,668	1537,408
1	0,000	104,718	1537,610
1	0,000	104,718	1537,711
1	0,000	104,718	1537,711
1	0,000	104,718	1537,912
1	0,000	104,718	1537,711
1	0,000	104,769	1538,214
1	0,000	104,769	1538,315
1	0,000	104,769	1538,416
1	0,000	104,769	1538,617
1	0,000	104,769	1538,718
1	0,000	104,819	1538,818
1	0,000	104,819	1539,020
1	0,000	104,819	1539,120
1	0,000	104,819	1539,322
1	0,000	104,819	1539,523
1	0,000	104,868	1539,624
1	0,000	104,868	1539,825
1	0,000	104,868	1539,725
1	0,000	104,868	1540,228
1	0,000	104,868	1540,329
1	0,000	104,919	1540,430
1	0,000	104,919	1540,430
1	0,000	104,919	1540,732
1	0,000	104,919	1540,631
1	0,000	104,919	1540,732
1	0,000	104,969	1540,933
1	0,000	104,969	1541,235
1	0,000	104,969	1541,336
1	0,000	104,969	1541,437
1	0,000	104,969	1541,537
1	0,000	105,019	1541,638
1	0,000	105,019	1541,537
1	0,000	105,019	1541,840
1	0,000	105,019	1541,940
1	0,000	105,019	1541,940
1	0,000	105,069	1542,142
1	0,000	105,069	1542,242
1	0,000	105,069	1542,343
1	0,000	105,069	1542,545
1	0,000	105,069	1542,645
1	0,000	105,119	1542,847
1	0,000	105,119	1542,947
1	0,000	105,119	1543,048
1	0,000	105,119	1542,947
1	0,000	105,119	1543,250
1	0,000	105,169	1543,149
1	0,000	105,169	1543,552
1	0,000	105,169	1543,652
1	0,000	105,169	1543,954
1	0,000	105,169	1544,055
1	0,000	105,219	1544,156
1	0,000	105,219	1544,357
1	0,000	105,219	1544,357
1	0,000	105,219	1544,559
1	0,000	105,219	1544,760
1	0,000	105,269	1545,062
1	0,000	105,269	1545,062
1	0,000	105,269	1545,062
1	0,000	105,269	1545,465
1	0,000	105,269	1545,364
1	0,000	105,319	1545,465
1	0,000	105,319	1545,667
1	0,000	105,319	1545,667
1	0,000	105,319	1545,868
1	0,000	105,319	1546,170
1	0,000	105,369	1546,271
1	0,000	105,369	1546,271
1	0,000	105,369	1546,472
1	0,000	105,369	1546,573
1	0,000	105,369	1546,774
1	0,000	105,419	1546,875
1	0,000	105,419	1547,076
1	0,000	105,419	1547,177
1	0,000	105,419	1547,379
1	0,000	105,419	1547,479
1	0,000	105,469	1547,681
1	0,000	105,469	1547,479
1	0,000	105,469	1547,781
1	0,000	105,469	1548,083
1	0,000	105,469	1547,983
1	0,000	105,519	1548,083
1	0,000	105,519	1548,184
1	0,000	105,519	1548,184
1	0,000	105,519	1548,587
1	0,000	105,519	1548,688
1	0,000	105,569	1548,889
1	0,000	105,569	1549,191
1	0,000	105,569	1549,292
1	0,000	105,569	1549,493
1	0,000	105,569	1549,594
1	0,000	105,620	1549,594
1	0,000	105,620	1549,997
1	0,000	105,620	1549,997
1	0,000	105,620	1550,098
1	0,000	105,620	1550,098
1	0,000	105,669	1550,400
1	0,000	105,669	1550,500
1	0,000	105,669	1550,601
1	0,000	105,669	1550,702
1	0,000	105,669	1550,803
1	0,000	105,720	1550,903
1	0,000	105,720	1551,105
1	0,000	105,720	1551,205
1	0,000	105,720	1551,306
1	0,000	105,720	1551,508
1	0,000	105,769	1551,608
1	0,000	105,769	1551,810
1	0,000	105,769	1551,910
1	0,000	105,769	1551,910
1	0,000	105,769	1551,910
1	0,000	105,820	1552,112
1	0,000	105,820	1552,213
1	0,000	105,820	1552,313
1	0,000	105,820	1552,414
1	0,000	105,820	1552,615
1	0,000	105,869	1552,615
1	0,000	105,869	1552,716
1	0,000	105,869	1553,018
1	0,000	105,869	1553,220
1	0,000	105,869	1553,320
1	0,000	105,919	1553,320
1	0,000	105,919	1553,421
1	0,000	105,919	1553,622
1	0,000	105,919	1553,522
1	0,000	105,919	1553,925
1	0,000	105,970	1553,925
1	0,000	105,970	1554,227
1	0,000	105,970	1554,630
1	0,000	105,970	1554,529
1	0,000	105,970	1554,831
1	0,000	106,020	1554,932
1	0,000	106,020	1555,032
1	0,000	106,020	1555,234
1	0,000	106,020	1554,932
1	0,000	106,020	1555,536
1	0,000	106,070	1555,536
1	0,000	106,070	1555,737
1	0,000	106,070	1555,838
1	0,000	106,070	1556,039
1	0,000	106,070	1556,140
1	0,000	106,120	1556,241
1	0,000	106,120	1556,342
1	0,000	106,120	1556,342
1	0,000	106,120	1556,744
1	0,000	106,120	1556,845
1	0,000	106,170	1556,946
1	0,000	106,170	1556,845
1	0,000	106,170	1557,248
1	0,000	106,170	1557,349
1	0,000	106,170	1557,449
1	0,000	106,220	1557,349
1	0,000	106,220	1557,550
1	0,000	106,220	1557,550
1	0,000	106,220	1557,751
1	0,000	106,220	1557,953
1	0,000	106,270	1557,953
1	0,000	106,270	1558,154
1	0,000	106,270	1558,356
1	0,000	106,270	1558,658
1	0,000	106,270	1558,859
1	0,000	106,320	1559,061
1	0,000	106,320	1559,061
1	0,000	106,320	1559,262
1	0,000	106,320	1559,262
1	0,000	106,320	1559,262
1	0,000	106,370	1559,161
1	0,000	106,370	1559,766
1	0,000	106,370	1559,967
1	0,000	106,370	1560,168
1	0,000	106,370	1560,168
1	0,000	106,420	1560,370
1	0,000	106,420	1560,370
1	0,000	106,420	1560,571
1	0,000	106,420	1560,672
1	0,000	106,420	1560,773
1	0,000	106,470	1560,974
1	0,000	106,470	1561,075
1	0,000	106,470	1561,276
1	0,000	106,470	1561,478
1	0,000	106,470	1561,578
1	0,000	106,520	1561,679
1	0,000	106,520	1561,780
1	0,000	106,520	1561,780
1	0,000	106,520	1561,780
1	0,000	106,520	1561,981
1	0,000	106,570	1562,082
1	0,000	106,570	1562,183
1	0,000	106,570	1562,384
1	0,000	106,570	1562,585
1	0,000	106,570	1562,787
1	0,000	106,620	1563,089
1	0,000	106,620	1563,290
1	0,000	106,620	1563,391
1	0,000	106,620	1563,391
1	0,000	106,620	1563,593
1	0,000	106,670	1563,693
1	0,000	106,670	1563,895
1	0,000	106,670	1564,096
1	0,000	106,670	1564,197
1	0,000	106,670	1564,398
1	0,000	106,720	1564,297
1	0,000	106,720	1564,499
1	0,000	106,720	1564,600
1	0,000	106,720	1564,801
1	0,000	106,720	1564,902
1	0,000	106,770	1565,002
1	0,000	106,770	1565,204
1	0,000	106,770	1565,305
1	0,000	106,770	1565,506
1	0,000	106,770	1565,506
1	0,000	106,820	1565,808
1	0,000	106,820	1565,909
1	0,000	106,820	1565,909
1	0,000	106,820	1566,110
1	0,000	106,820	1566,312
1	0,000	106,870	1566,513
1	0,000	106,870	1566,714
1	0,000	106,870	1566,714
1	0,000	106,870	1566,916
1	0,000	106,870	1567,017
1	0,000	106,920	1567,218
1	0,000	106,920	1567,319
1	0,000	106,920	1567,520
1	0,000	106,920	1567,621
1	0,000	106,920	1567,722
1	0,000	106,970	1568,024
1	0,000	106,970	1568,024
1	0,000	106,970	1568,124
1	0,000	106,970	1568,427
1	0,000	106,970	1568,427
1	0,000	107,020	1568,527
1	0,000	107,020	1568,729
1	0,000	107,020	1568,829
1	0,000	107,020	1568,930
1	0,000	107,020	1569,131
1	0,000	107,070	1569,232
1	0,000	107,070	1569,333
1	0,000	107,070	1569,434
1	0,000	107,070	1569,635
1	0,000	107,070	1569,736
1	0,000	107,120	1569,937
1	0,000	107,120	1570,038
1	0,000	107,120	1570,239
1	0,000	107,120	1570,441
1	0,000	107,120	1570,441
1	0,000	107,171	1570,541
1	0,000	107,171	1570,743
1	0,000	107,171	1570,944
1	0,000	107,171	1571,045
1	0,000	107,171	1571,146
1	0,000	107,220	1571,448
1	0,000	107,220	1571,548
1	0,000	107,220	1571,750
1	0,000	107,220	1571,851
1	0,000	107,220	1571,951
1	0,000	107,271	1572,052
1	0,000	107,271	1572,253
1	0,000	107,271	1572,455
1	0,000	107,271	1572,455
1	0,000	107,271	1572,556
1	0,000	107,320	1572,757
1	0,000	107,320	1572,858
1	0,000	107,320	1573,059
1	0,000	107,320	1573,160
1	0,000	107,320	1573,361
1	0,000	107,370	1573,361
1	0,000	107,370	1573,563
1	0,000	107,370	1573,663
1	0,000	107,370	1573,764
1	0,000	107,370	1573,965
1	0,000	107,421	1574,066
1	0,000	107,421	1574,268
1	0,000	107,421	1574,368
1	0,000	107,421	1574,469
1	0,000	107,421	1574,771
1	0,000	107,421	1574,872
1	0,000	107,471	1575,073
1	0,000	107,471	1575,174
1	0,000	107,471	1575,275
1	0,000	107,471	1575,476
1	0,000	107,471	1575,677
1	0,000	107,521	1575,879
1	0,000	107,521	1575,980
1	0,000	107,521	1576,080
1	0,000	107,521	1576,181
1	0,000	107,521	1576,382
1	0,000	107,571	1576,483
1	0,000	107,571	1576,685
1	0,000	107,571	1576,785
1	0,000	107,571	1576,685
1	0,000	107,621	1577,087
1	0,000	107,621	1577,188
1	0,000	107,621	1577,390
1	0,000	107,621	1577,490
1	0,000	107,621	1577,591
1	0,000	107,672	1577,692
1	0,000	107,672	1577,893
1	0,000	107,672	1577,994
1	0,000	107,672	1578,195
1	0,000	107,672	1578,296
1	0,000	107,672	1578,397
1	0,000	107,721	1578,497
1	0,000	107,721	1578,699
1	0,000	107,721	1578,799
1	0,000	107,721	1578,900
1	0,000	107,771	1579,102
1	0,000	107,771	1579,202
1	0,000	107,771	1579,303
1	0,000	107,771	1579,504
1	0,000	107,771	1579,706
1	0,000	107,771	1579,807
1	0,000	107,821	1580,008
1	0,000	107,821	1580,109
1	0,000	107,821	1580,209
1	0,000	107,821	1580,310
1	0,000	107,821	1580,411
1	0,000	107,872	1580,511
1	0,000	107,872	1581,015
1	0,000	107,872	1581,116
1	0,000	107,872	1581,216
1	0,000	107,872	1581,317
1	0,000	107,922	1581,519
1	0,000	107,922	1581,519
1	0,000	107,922	1581,720
1	0,000	107,922	1581,921
1	0,000	107,922	1582,022
1	0,000	107,973	1582,123
1	0,000	107,973	1582,224
1	0,000	107,973	1582,425
1	0,000	107,973	1582,727
1	0,000	107,973	1582,626
1	0,000	108,023	1582,828
1	0,000	108,023	1583,029
1	0,000	108,023	1583,130
1	0,000	108,023	1583,231
1	0,000	108,023	1583,331
1	0,000	108,072	1583,533
1	0,000	108,072	1583,633
1	0,000	108,072	1583,734
1	0,000	108,072	1583,936
1	0,000	108,072	1584,036
1	0,000	108,122	1584,137
1	0,000	108,122	1584,238
1	0,000	108,122	1584,439
1	0,000	108,122	1584,641
1	0,000	108,122	1584,741
1	0,000	108,173	1584,842
1	0,000	108,173	1585,043
1	0,000	108,173	1584,943
1	0,000	108,173	1585,446
1	0,000	108,173	1585,648
1	0,000	108,222	1585,748
1	0,000	108,222	1585,849
1	0,000	108,222	1585,950
1	0,000	108,222	1586,252
1	0,000	108,222	1586,252
1	0,000	108,273	1586,453
1	0,000	108,273	1586,554
1	0,000	108,273	1586,755
1	0,000	108,273	1586,755
1	0,000	108,273	1586,957
1	0,000	108,323	1587,057
1	0,000	108,323	1586,957
1	0,000	108,323	1587,259
1	0,000	108,323	1587,460
1	0,000	108,323	1587,561
1	0,000	108,373	1587,762
1	0,000	108,373	1587,863
1	0,000	108,373	1588,065
1	0,000	108,373	1588,065
1	0,000	108,373	1588,266
1	0,000	108,423	1588,367
1	0,000	108,423	1588,669
1	0,000	108,423	1588,669
1	0,000	108,423	1588,870
1	0,000	108,423	1588,971
1	0,000	108,473	1589,172
1	0,000	108,473	1589,273
1	0,000	108,473	1589,374
1	0,000	108,473	1589,474
1	0,000	108,473	1589,676
1	0,000	108,523	1589,877
1	0,000	108,523	1589,978
1	0,000	108,523	1589,877
1	0,000	108,523	1590,280
1	0,000	108,523	1590,482
1	0,000	108,573	1589,877
1	0,000	108,573	1590,683
1	0,000	108,573	1590,985
1	0,000	108,573	1591,187
1	0,000	108,573	1591,287
1	0,000	108,623	1591,489
1	0,000	108,623	1591,187
1	0,000	108,623	1591,690
1	0,000	108,623	1591,791
1	0,000	108,623	1591,891
1	0,000	108,673	1592,093
1	0,000	108,673	1592,294
1	0,000	108,673	1592,294
1	0,000	108,673	1592,395
1	0,000	108,673	1592,596
1	0,000	108,723	1592,697
1	0,000	108,723	1592,294
1	0,000	108,723	1592,999
1	0,000	108,723	1593,100
1	0,000	108,723	1593,301
1	0,000	108,773	1593,503
1	0,000	108,773	1593,604
1	0,000	108,773	1593,704
1	0,000	108,773	1593,805
1	0,000	108,773	1594,006
1	0,000	108,823	1594,107
1	0,000	108,823	1594,308
1	0,000	108,823	1594,409
1	0,000	108,823	1594,711
1	0,000	108,823	1594,913
1	0,000	108,873	1595,114
1	0,000	108,873	1595,215
1	0,000	108,873	1595,215
1	0,000	108,873	1595,517
1	0,000	108,873	1595,517
1	0,000	108,923	1595,819
1	0,000	108,923	1595,920
1	0,000	108,923	1596,021
1	0,000	108,923	1596,121
1	0,000	108,923	1596,222
1	0,000	108,973	1596,423
1	0,000	108,973	1596,625
1	0,000	108,973	1596,826
1	0,000	108,973	1596,927
1	0,000	108,973	1597,028
1	0,000	109,023	1597,128
1	0,000	109,023	1597,330
1	0,000	109,023	1597,531
1	0,000	109,023	1597,531
1	0,000	109,023	1597,733
1	0,000	109,073	1597,934
1	0,000	109,073	1598,135
1	0,000	109,073	1598,135
1	0,000	109,073	1598,236
1	0,000	109,073	1598,437
1	0,000	109,123	1598,538
1	0,000	109,123	1598,740
1	0,000	109,123	1598,840
1	0,000	109,123	1598,941
1	0,000	109,123	1599,142
1	0,000	109,173	1599,445
1	0,000	109,173	1599,445
1	0,000	109,173	1598,941
1	0,000	109,173	1599,948
1	0,000	109,173	1600,049
1	0,000	109,223	1600,150
1	0,000	109,223	1600,452
1	0,000	109,223	1600,452
1	0,000	109,223	1600,653
1	0,000	109,223	1600,653
1	0,000	109,274	1600,854
1	0,000	109,274	1601,056
1	0,000	109,274	1601,056
1	0,000	109,274	1601,358
1	0,000	109,274	1601,459
1	0,000	109,324	1601,660
1	0,000	109,324	1601,761
1	0,000	109,324	1601,962
1	0,000	109,324	1602,063
1	0,000	109,324	1602,264
1	0,000	109,374	1602,365
1	0,000	109,374	1602,466
1	0,000	109,374	1602,667
1	0,000	109,374	1602,768
1	0,000	109,374	1602,969
1	0,000	109,424	1603,070
1	0,000	109,424	1603,171
1	0,000	109,424	1603,271
1	0,000	109,424	1603,473
1	0,000	109,424	1603,473
1	0,000	109,474	1603,574
1	0,000	109,474	1603,876
1	0,000	109,474	1603,876
1	0,000	109,474	1604,178
1	0,000	109,474	1604,178
1	0,000	109,524	1604,379
1	0,000	109,524	1604,581
1	0,000	109,524	1604,782
1	0,000	109,524	1605,185
1	0,000	109,524	1605,286
1	0,000	109,574	1605,386
1	0,000	109,574	1605,487
1	0,000	109,574	1605,688
1	0,000	109,574	1605,890
1	0,000	109,574	1605,991
1	0,000	109,624	1606,091
1	0,000	109,624	1606,192
1	0,000	109,624	1606,293
1	0,000	109,624	1606,293
1	0,000	109,624	1606,696
1	0,000	109,674	1606,796
1	0,000	109,674	1606,897
1	0,000	109,674	1607,098
1	0,000	109,674	1607,199
1	0,000	109,674	1607,300
1	0,000	109,725	1607,300
1	0,000	109,725	1607,501
1	0,000	109,725	1607,703
1	0,000	109,725	1607,602
1	0,000	109,725	1607,904
1	0,000	109,775	1608,005
1	0,000	109,775	1608,105
1	0,000	109,775	1608,307
1	0,000	109,775	1608,408
1	0,000	109,775	1608,609
1	0,000	109,825	1608,810
1	0,000	109,825	1608,810
1	0,000	109,825	1609,113
1	0,000	109,825	1609,213
1	0,000	109,825	1609,415
1	0,000	109,875	1609,515
1	0,000	109,875	1609,717
1	0,000	109,875	1609,818
1	0,000	109,875	1610,019
1	0,000	109,875	1610,120
1	0,000	109,925	1610,220
1	0,000	109,925	1610,522
1	0,000	109,925	1610,623
1	0,000	109,925	1610,724
1	0,000	109,925	1610,825
1	0,000	109,975	1611,026
1	0,000	109,975	1611,127
1	0,000	109,975	1611,227
1	0,000	109,975	1611,429
1	0,000	109,975	1611,630
1	0,000	110,026	1611,832
1	0,000	110,026	1611,832
1	0,000	110,026	1612,134
1	0,000	110,026	1612,234
1	0,000	110,026	1612,335
1	0,000	110,076	1612,436
1	0,000	110,076	1612,637
1	0,000	110,076	1612,738
1	0,000	110,076	1612,839
1	0,000	110,076	1612,939
1	0,000	110,126	1612,939
1	0,000	110,126	1613,342
1	0,000	110,126	1613,342
1	0,000	110,126	1613,745
1	0,000	110,126	1614,047
1	0,000	110,177	1614,047
1	0,000	110,177	1614,148
1	0,000	110,177	1614,249
1	0,000	110,177	1614,450
1	0,000	110,177	1614,551
1	0,000	110,227	1614,853
1	0,000	110,227	1614,954
1	0,000	110,227	1615,054
1	0,000	110,227	1615,256
1	0,000	110,227	1615,356
1	0,000	110,277	1615,558
1	0,000	110,277	1615,659
1	0,000	110,277	1615,860
1	0,000	110,277	1615,961
1	0,000	110,277	1616,162
1	0,000	110,327	1616,263
1	0,000	110,327	1616,464
1	0,000	110,327	1616,666
1	0,000	110,327	1616,766
1	0,000	110,327	1617,068
1	0,000	110,377	1616,968
1	0,000	110,377	1617,270
1	0,000	110,377	1617,371
1	0,000	110,377	1617,572
1	0,000	110,377	1617,673
1	0,000	110,427	1617,874
1	0,000	110,427	1617,975
1	0,000	110,427	1618,176
1	0,000	110,427	1618,378
1	0,000	110,427	1618,478
1	0,000	110,477	1618,680
1	0,000	110,477	1618,881
1	0,000	110,477	1618,982
1	0,000	110,477	1619,083
1	0,000	110,477	1619,183
1	0,000	110,527	1619,385
1	0,000	110,527	1619,586
1	0,000	110,527	1619,586
1	0,000	110,527	1619,788
1	0,000	110,527	1619,989
1	0,000	110,577	1620,190
1	0,000	110,577	1620,392
1	0,000	110,577	1620,392
1	0,000	110,577	1620,694
1	0,000	110,577	1620,795
1	0,000	110,627	1620,795
1	0,000	110,627	1620,996
1	0,000	110,627	1621,097
1	0,000	110,627	1621,298
1	0,000	110,627	1621,500
1	0,000	110,677	1621,600
1	0,000	110,677	1621,701
1	0,000	110,677	1621,902
1	0,000	110,677	1622,104
1	0,000	110,677	1622,305
1	0,000	110,727	1622,507
1	0,000	110,727	1622,607
1	0,000	110,727	1622,708
1	0,000	110,727	1622,910
1	0,000	110,727	1623,010
1	0,000	110,777	1623,111
1	0,000	110,777	1623,312
1	0,000	110,777	1623,413
1	0,000	110,777	1623,615
1	0,000	110,777	1623,715
1	0,000	110,827	1623,917
1	0,000	110,827	1624,118
1	0,000	110,827	1624,219
1	0,000	110,827	1624,420
1	0,000	110,827	1624,521
1	0,000	110,877	1624,622
1	0,000	110,877	1624,823
1	0,000	110,877	1625,024
1	0,000	110,877	1625,226
1	0,000	110,877	1625,528
1	0,000	110,927	1625,528
1	0,000	110,927	1625,729
1	0,000	110,927	1625,830
1	0,000	110,927	1626,031
1	0,000	110,927	1626,132
1	0,000	110,978	1626,334
1	0,000	110,978	1626,434
1	0,000	110,978	1626,535
1	0,000	110,978	1626,837
1	0,000	110,978	1626,938
1	0,000	111,028	1627,039
1	0,000	111,028	1627,240
1	0,000	111,028	1627,441
1	0,000	111,028	1627,542
1	0,000	111,028	1627,643
1	0,000	111,078	1627,844
1	0,000	111,078	1627,945
1	0,000	111,078	1628,247
1	0,000	111,078	1628,348
1	0,000	111,078	1628,247
1	0,000	111,128	1628,549
1	0,000	111,128	1628,751
1	0,000	111,128	1628,851
1	0,000	111,128	1629,053
1	0,000	111,128	1629,153
1	0,000	111,177	1629,254
1	0,000	111,177	1629,456
1	0,000	111,177	1629,556
1	0,000	111,177	1629,858
1	0,000	111,177	1629,959
1	0,000	111,228	1630,161
1	0,000	111,228	1630,261
1	0,000	111,228	1630,463
1	0,000	111,228	1630,563
1	0,000	111,228	1630,765
1	0,000	111,278	1630,865
1	0,000	111,278	1631,067
1	0,000	111,278	1631,268
1	0,000	111,278	1631,268
1	0,000	111,278	1631,470
1	0,000	111,327	1631,671
1	0,000	111,327	1631,772
1	0,000	111,327	1631,973
1	0,000	111,327	1632,074
1	0,000	111,327	1632,275
1	0,000	111,378	1632,376
1	0,000	111,378	1632,578
1	0,000	111,378	1632,678
1	0,000	111,378	1632,880
1	0,000	111,378	1632,980
1	0,000	111,428	1633,182
1	0,000	111,428	1633,282
1	0,000	111,428	1633,383
1	0,000	111,428	1633,685
1	0,000	111,428	1633,685
1	0,000	111,478	1633,887
1	0,000	111,478	1634,088
1	0,000	111,478	1634,290
1	0,000	111,478	1634,491
1	0,000	111,478	1634,592
1	0,000	111,528	1634,692
1	0,000	111,528	1634,894
1	0,000	111,528	1634,995
1	0,000	111,528	1635,196
1	0,000	111,528	1635,297
1	0,000	111,578	1635,397
1	0,000	111,578	1635,599
1	0,000	111,578	1635,800
1	0,000	111,578	1635,901
1	0,000	111,578	1636,102
1	0,000	111,628	1636,304
1	0,000	111,628	1636,404
1	0,000	111,628	1636,505
1	0,000	111,628	1636,606
1	0,000	111,628	1636,807
1	0,000	111,678	1637,009
1	0,000	111,678	1637,109
1	0,000	111,678	1637,411
1	0,000	111,678	1637,613
1	0,000	111,678	1637,714
1	0,000	111,728	1637,915
1	0,000	111,728	1637,915
1	0,000	111,728	1638,016
1	0,000	111,728	1638,419
1	0,000	111,728	1638,419
1	0,000	111,778	1638,620
1	0,000	111,778	1638,721
1	0,000	111,778	1638,922
1	0,000	111,778	1639,023
1	0,000	111,778	1639,124
1	0,000	111,828	1639,325
1	0,000	111,828	1639,426
1	0,000	111,828	1639,627
1	0,000	111,828	1639,828
1	0,000	111,828	1640,030
1	0,000	111,878	1640,131
1	0,000	111,878	1640,332
1	0,000	111,878	1640,433
1	0,000	111,878	1640,634
1	0,000	111,878	1640,735
1	0,000	111,928	1640,936
1	0,000	111,928	1641,138
1	0,000	111,928	1641,339
1	0,000	111,928	1641,339
1	0,000	111,928	1641,641
1	0,000	111,978	1641,943
1	0,000	111,978	1641,843
1	0,000	111,978	1642,044
1	0,000	111,978	1642,245
1	0,000	111,978	1642,447
1	0,000	112,028	1642,548
1	0,000	112,028	1642,648
1	0,000	112,028	1642,749
1	0,000	112,028	1642,850
1	0,000	112,028	1643,152
1	0,000	112,078	1643,353
1	0,000	112,078	1643,555
1	0,000	112,078	1643,655
1	0,000	112,078	1643,756
1	0,000	112,078	1643,958
1	0,000	112,128	1644,058
1	0,000	112,128	1644,260
1	0,000	112,128	1644,461
1	0,000	112,128	1644,562
1	0,000	112,128	1644,763
1	0,000	112,178	1644,864
1	0,000	112,178	1645,065
1	0,000	112,178	1645,267
1	0,000	112,178	1645,367
1	0,000	112,178	1645,569
1	0,000	112,229	1645,670
1	0,000	112,229	1645,871
1	0,000	112,229	1645,871
1	0,000	112,229	1646,173
1	0,000	112,229	1646,375
1	0,000	112,278	1646,576
1	0,000	112,278	1647,684
1	0,000	112,278	1646,777
1	0,000	112,278	1648,691
1	0,000	112,278	1647,382
1	0,000	112,328	1647,180
1	0,000	112,328	1647,382
1	0,000	112,328	1647,482
1	0,000	112,328	1647,583
1	0,000	112,328	1647,986
1	0,000	112,378	1648,187
1	0,000	112,378	1648,187
1	0,000	112,378	1648,389
1	0,000	112,378	1648,489
1	0,000	112,378	1648,691
1	0,000	112,428	1648,892
1	0,000	112,428	1648,993
1	0,000	112,428	1649,094
1	0,000	112,428	1649,295
1	0,000	112,428	1649,496
1	0,000	112,428	1649,597
1	0,000	112,478	1649,899
1	0,000	112,478	1650,000
1	0,000	112,478	1650,101
1	0,000	112,478	1650,201
1	0,000	112,478	1650,403
1	0,000	112,529	1650,604
1	0,000	112,529	1650,705
1	0,000	112,529	1650,906
1	0,000	112,529	1651,007
1	0,000	112,578	1651,208
1	0,000	112,578	1651,410
1	0,000	112,578	1651,511
1	0,000	112,578	1651,611
1	0,000	112,578	1651,813
1	0,000	112,629	1652,014
1	0,000	112,629	1652,216
1	0,000	112,629	1652,316
1	0,000	112,629	1652,618
1	0,000	112,629	1652,719
1	0,000	112,679	1652,921
1	0,000	112,679	1653,021
1	0,000	112,679	1653,323
1	0,000	112,679	1653,323
1	0,000	112,679	1653,525
1	0,000	112,679	1653,726
1	0,000	112,729	1653,726
1	0,000	112,729	1654,129
1	0,000	112,729	1654,230
1	0,000	112,729	1654,330
1	0,000	112,779	1654,431
1	0,000	112,779	1654,633
1	0,000	112,779	1654,733
1	0,000	112,779	1654,935
1	0,000	112,779	1655,035
1	0,000	112,779	1655,338
1	0,000	112,829	1655,136
1	0,000	112,829	1655,640
1	0,000	112,829	1655,740
1	0,000	112,829	1655,841
1	0,000	112,829	1656,143
1	0,000	112,880	1656,244
1	0,000	112,880	1656,345
1	0,000	112,880	1656,546
1	0,000	112,880	1656,647
1	0,000	112,880	1656,848
1	0,000	112,930	1657,050
1	0,000	112,930	1657,150
1	0,000	112,930	1657,352
1	0,000	112,930	1657,352
1	0,000	112,930	1657,553
1	0,000	112,980	1657,755
1	0,000	112,980	1657,755
1	0,000	112,980	1658,057
1	0,000	112,980	1658,258
1	0,000	112,980	1658,459
1	0,000	113,031	1658,560
1	0,000	113,031	1658,762
1	0,000	113,031	1658,963
1	0,000	113,031	1659,064
1	0,000	113,080	1659,164
1	0,000	113,080	1659,366
1	0,000	113,080	1659,567
1	0,000	113,080	1659,769
1	0,000	113,080	1659,869
1	0,000	113,080	1660,071
1	0,000	113,131	1660,172
1	0,000	113,131	1660,373
1	0,000	113,131	1660,474
1	0,000	113,131	1660,675
1	0,000	113,131	1660,776
1	0,000	113,180	1660,977
1	0,000	113,180	1660,977
1	0,000	113,180	1661,279
1	0,000	113,180	1661,481
1	0,000	113,180	1661,682
1	0,000	113,230	1661,884
1	0,000	113,230	1661,984
1	0,000	113,230	1662,085
1	0,000	113,230	1662,286
1	0,000	113,230	1662,387
1	0,000	113,281	1662,589
1	0,000	113,281	1662,689
1	0,000	113,281	1662,891
1	0,000	113,281	1662,991
1	0,000	113,281	1663,193
1	0,000	113,330	1663,394
1	0,000	113,330	1663,596
1	0,000	113,330	1663,797
1	0,000	113,330	1663,898
1	0,000	113,330	1664,200
1	0,000	113,380	1664,301
1	0,000	113,380	1664,401
1	0,000	113,380	1664,603
1	0,000	113,380	1664,703
1	0,000	113,380	1664,905
1	0,000	113,431	1665,005
1	0,000	113,431	1665,207
1	0,000	113,431	1665,308
1	0,000	113,431	1665,509
1	0,000	113,431	1665,710
1	0,000	113,481	1665,811
1	0,000	113,481	1666,013
1	0,000	113,481	1666,113
1	0,000	113,481	1666,315
1	0,000	113,481	1666,516
1	0,000	113,531	1666,617
1	0,000	113,531	1666,818
1	0,000	113,531	1666,818
1	0,000	113,531	1667,221
1	0,000	113,531	1667,322
1	0,000	113,581	1667,523
1	0,000	113,581	1667,624
1	0,000	113,581	1667,825
1	0,000	113,581	1668,127
1	0,000	113,631	1668,228
1	0,000	113,631	1668,430
1	0,000	113,631	1668,430
1	0,000	113,631	1668,631
1	0,000	113,631	1668,832
1	0,000	113,631	1668,933
1	0,000	113,681	1669,135
1	0,000	113,681	1669,235
1	0,000	113,681	1669,437
1	0,000	113,681	1669,638
1	0,000	113,681	1669,537
1	0,000	113,732	1669,940
1	0,000	113,732	1670,041
1	0,000	113,732	1670,242
1	0,000	113,732	1670,343
1	0,000	113,732	1670,544
1	0,000	113,782	1670,746
1	0,000	113,782	1670,847
1	0,000	113,782	1671,048
1	0,000	113,782	1671,149
1	0,000	113,782	1671,350
1	0,000	113,831	1671,552
1	0,000	113,831	1671,652
1	0,000	113,831	1671,854
1	0,000	113,831	1671,954
1	0,000	113,831	1672,156
1	0,000	113,881	1672,256
1	0,000	113,881	1672,559
1	0,000	113,881	1672,659
1	0,000	113,881	1672,861
1	0,000	113,881	1673,062
1	0,000	113,932	1673,163
1	0,000	113,932	1673,364
1	0,000	113,932	1673,566
1	0,000	113,932	1673,666
1	0,000	113,932	1673,767
1	0,000	113,982	1673,969
1	0,000	113,982	1674,170
1	0,000	113,982	1674,371
1	0,000	113,982	1674,573
1	0,000	113,982	1674,371
1	0,000	114,032	1674,673
1	0,000	114,032	1675,076
1	0,000	114,032	1675,177
1	0,000	114,032	1675,378
1	0,000	114,032	1675,479
1	0,000	114,082	1675,681
1	0,000	114,082	1675,882
1	0,000	114,082	1676,083
1	0,000	114,082	1676,184
1	0,000	114,082	1676,285
1	0,000	114,132	1676,486
1	0,000	114,132	1676,688
1	0,000	114,132	1676,788
1	0,000	114,132	1676,990
1	0,000	114,132	1677,090
1	0,000	114,182	1677,292
1	0,000	114,182	1677,393
1	0,000	114,182	1677,594
1	0,000	114,182	1677,695
1	0,000	114,182	1677,896
1	0,000	114,233	1678,098
1	0,000	114,233	1678,299
1	0,000	114,233	1678,500
1	0,000	114,233	1678,601
1	0,000	114,233	1678,702
1	0,000	114,282	1678,903
1	0,000	114,282	1679,205
1	0,000	114,282	1679,306
1	0,000	114,282	1679,407
1	0,000	114,282	1679,608
1	0,000	114,332	1679,709
1	0,000	114,332	1679,910
1	0,000	114,332	1680,112
1	0,000	114,332	1680,112
1	0,000	114,332	1680,414
1	0,000	114,383	1680,615
1	0,000	114,383	1680,716
1	0,000	114,383	1680,917
1	0,000	114,383	1681,219
1	0,000	114,383	1681,320
1	0,000	114,432	1681,320
1	0,000	114,432	1681,522
1	0,000	114,432	1681,622
1	0,000	114,432	1681,924
1	0,000	114,432	1682,025
1	0,000	114,483	1682,126
1	0,000	114,483	1682,227
1	0,000	114,483	1682,529
1	0,000	114,483	1682,730
1	0,000	114,483	1682,831
1	0,000	114,533	1682,932
1	0,000	114,533	1683,133
1	0,000	114,533	1683,334
1	0,000	114,533	1683,435
1	0,000	114,533	1683,636
1	0,000	114,582	1683,838
1	0,000	114,582	1684,039
1	0,000	114,582	1684,241
1	0,000	114,582	1684,341
1	0,000	114,582	1684,543
1	0,000	114,632	1684,744
1	0,000	114,632	1684,946
1	0,000	114,632	1685,046
1	0,000	114,632	1685,248
1	0,000	114,632	1685,449
1	0,000	114,682	1685,248
1	0,000	114,682	1685,449
1	0,000	114,682	1685,852
1	0,000	114,682	1686,053
1	0,000	114,682	1686,154
1	0,000	114,733	1686,356
1	0,000	114,733	1686,557
1	0,000	114,733	1686,758
1	0,000	114,733	1686,859
1	0,000	114,733	1687,061
1	0,000	114,783	1687,161
1	0,000	114,783	1687,363
1	0,000	114,783	1687,564
1	0,000	114,783	1687,766
1	0,000	114,783	1687,866
1	0,000	114,834	1688,168
1	0,000	114,834	1688,269
1	0,000	114,834	1688,370
1	0,000	114,834	1688,571
1	0,000	114,834	1688,773
1	0,000	114,884	1688,873
1	0,000	114,884	1689,075
1	0,000	114,884	1689,276
1	0,000	114,884	1689,377
1	0,000	114,884	1689,578
1	0,000	114,934	1689,780
1	0,000	114,934	1689,880
1	0,000	114,934	1690,082
1	0,000	114,934	1690,182
1	0,000	114,934	1690,384
1	0,000	114,985	1690,585
1	0,000	114,985	1690,686
1	0,000	114,985	1690,988
1	0,000	114,985	1691,089
1	0,000	114,985	1691,290
1	0,000	115,034	1691,492
1	0,000	115,034	1691,492
1	0,000	115,034	1691,794
1	0,000	115,034	1691,895
1	0,000	115,034	1692,096
1	0,000	115,085	1692,297
1	0,000	115,085	1692,499
1	0,000	115,085	1692,700
1	0,000	115,085	1692,801
1	0,000	115,085	1692,902
1	0,000	115,135	1693,103
1	0,000	115,135	1693,103
1	0,000	115,135	1693,204
1	0,000	115,135	1693,707
1	0,000	115,135	1693,808
1	0,000	115,185	1694,009
1	0,000	115,185	1694,110
1	0,000	115,185	1694,312
1	0,000	115,185	1694,412
1	0,000	115,185	1694,513
1	0,000	115,235	1694,815
1	0,000	115,235	1694,916
1	0,000	115,235	1695,117
1	0,000	115,235	1695,319
1	0,000	115,235	1695,419
1	0,000	115,285	1695,621
1	0,000	115,285	1695,923
1	0,000	115,285	1695,923
1	0,000	115,285	1695,923
1	0,000	115,285	1696,426
1	0,000	115,335	1696,527
1	0,000	115,335	1696,729
1	0,000	115,335	1696,829
1	0,000	115,335	1696,930
1	0,000	115,335	1697,131
1	0,000	115,385	1697,333
1	0,000	115,385	1697,534
1	0,000	115,385	1697,635
1	0,000	115,385	1697,836
1	0,000	115,385	1697,937
1	0,000	115,436	1698,138
1	0,000	115,436	1698,340
1	0,000	115,436	1698,541
1	0,000	115,436	1698,743
1	0,000	115,436	1698,944
1	0,000	115,486	1699,045
1	0,000	115,486	1699,146
1	0,000	115,486	1699,347
1	0,000	115,486	1699,448
1	0,000	115,486	1699,649
1	0,000	115,536	1699,850
1	0,000	115,536	1700,052
1	0,000	115,536	1700,153
1	0,000	115,536	1700,253
1	0,000	115,536	1700,455
1	0,000	115,536	1700,656
1	0,000	115,587	1700,757
1	0,000	115,587	1700,958
1	0,000	115,587	1700,858
1	0,000	115,587	1701,462
1	0,000	115,637	1701,663
1	0,000	115,637	1701,663
1	0,000	115,637	1701,965
1	0,000	115,637	1702,066
1	0,000	115,637	1702,267
1	0,000	115,687	1702,469
1	0,000	115,687	1702,771
1	0,000	115,687	1702,972
1	0,000	115,687	1703,073
1	0,000	115,687	1703,174
1	0,000	115,687	1703,275
1	0,000	115,737	1703,476
1	0,000	115,737	1703,476
1	0,000	115,737	1703,677
1	0,000	115,737	1703,979
1	0,000	115,787	1704,080
1	0,000	115,787	1704,282
1	0,000	115,787	1704,382
1	0,000	115,787	1704,584
1	0,000	115,787	1704,785
1	0,000	115,787	1704,987
1	0,000	115,837	1705,087
1	0,000	115,837	1705,188
1	0,000	115,837	1705,389
1	0,000	115,837	1705,591
1	0,000	115,887	1705,792
1	0,000	115,887	1705,893
1	0,000	115,887	1706,094
1	0,000	115,887	1706,296
1	0,000	115,887	1706,497
1	0,000	115,887	1706,598
1	0,000	115,937	1706,799
1	0,000	115,937	1707,001
1	0,000	115,937	1707,101
1	0,000	115,937	1707,303
1	0,000	115,987	1707,404
1	0,000	115,987	1707,605
1	0,000	115,987	1707,806
1	0,000	115,987	1707,907
1	0,000	115,987	1708,109
1	0,000	115,987	1708,310
1	0,000	116,037	1708,511
1	0,000	116,037	1708,411
1	0,000	116,037	1708,813
1	0,000	116,037	1709,015
1	0,000	116,088	1709,116
1	0,000	116,088	1709,418
1	0,000	116,088	1709,518
1	0,000	116,088	1709,720
1	0,000	116,088	1709,921
1	0,000	116,088	1710,022
1	0,000	116,137	1710,123
1	0,000	116,137	1710,324
1	0,000	116,137	1710,626
1	0,000	116,137	1710,727
1	0,000	116,137	1710,928
1	0,000	116,188	1711,029
1	0,000	116,188	1711,130
1	0,000	116,188	1711,331
1	0,000	116,188	1711,633
1	0,000	116,188	1711,835
1	0,000	116,237	1711,935
1	0,000	116,237	1712,036
1	0,000	116,237	1712,338
1	0,000	116,237	1712,338
1	0,000	116,237	1712,540
1	0,000	116,287	1712,741
1	0,000	116,287	1713,043
1	0,000	116,287	1713,144
1	0,000	116,287	1713,345
1	0,000	116,287	1713,446
1	0,000	116,338	1713,748
1	0,000	116,338	1714,050
1	0,000	116,338	1714,050
1	0,000	116,338	1714,252
1	0,000	116,338	1714,453
1	0,000	116,388	1714,050
1	0,000	116,388	1715,259
1	0,000	116,388	1714,856
1	0,000	116,388	1715,057
1	0,000	116,388	1714,957
1	0,000	116,438	1715,460
1	0,000	116,438	1715,561
1	0,000	116,438	1715,662
1	0,000	116,438	1715,863
1	0,000	116,438	1716,064
1	0,000	116,488	1716,266
1	0,000	116,488	1716,367
1	0,000	116,488	1716,568
1	0,000	116,488	1716,769
1	0,000	116,538	1716,870
1	0,000	116,538	1717,072
1	0,000	116,538	1717,273
1	0,000	116,538	1717,474
1	0,000	116,538	1717,575
1	0,000	116,538	1717,776
1	0,000	116,588	1717,978
1	0,000	116,588	1718,179
1	0,000	116,588	1718,280
1	0,000	116,588	1718,481
1	0,000	116,588	1718,683
1	0,000	116,638	1718,985
1	0,000	116,638	1718,985
1	0,000	116,638	1719,186
1	0,000	116,638	1719,287
1	0,000	116,638	1719,489
1	0,000	116,688	1719,690
1	0,000	116,688	1719,891
1	0,000	116,688	1720,093
1	0,000	116,688	1720,193
1	0,000	116,688	1720,395
1	0,000	116,738	1720,596
1	0,000	116,738	1720,697
1	0,000	116,738	1720,898
1	0,000	116,738	1721,100
1	0,000	116,788	1721,201
1	0,000	116,788	1721,402
1	0,000	116,788	1721,603
1	0,000	116,788	1721,805
1	0,000	116,788	1722,006
1	0,000	116,788	1722,006
1	0,000	116,838	1722,308
1	0,000	116,838	1722,409
1	0,000	116,838	1722,610
1	0,000	116,838	1722,812
1	0,000	116,838	1723,013
1	0,000	116,888	1723,215
1	0,000	116,888	1723,315
1	0,000	116,888	1723,517
1	0,000	116,888	1723,618
1	0,000	116,888	1724,020
1	0,000	116,938	1724,020
1	0,000	116,938	1724,222
1	0,000	116,938	1724,323
1	0,000	116,938	1724,524
1	0,000	116,938	1724,725
1	0,000	116,988	1724,927
1	0,000	116,988	1725,027
1	0,000	116,988	1725,229
1	0,000	116,988	1725,330
1	0,000	116,988	1725,430
1	0,000	117,038	1725,430
1	0,000	117,038	1726,035
1	0,000	117,038	1726,135
1	0,000	117,038	1726,337
1	0,000	117,038	1726,437
1	0,000	117,088	1726,639
1	0,000	117,088	1726,840
1	0,000	117,088	1726,639
1	0,000	117,088	1727,142
1	0,000	117,088	1727,344
1	0,000	117,138	1727,646
1	0,000	117,138	1727,747
1	0,000	117,138	1727,948
1	0,000	117,138	1727,948
1	0,000	117,138	1728,149
1	0,000	117,188	1728,351
1	0,000	117,188	1728,552
1	0,000	117,188	1728,754
1	0,000	117,188	1728,854
1	0,000	117,188	1729,056
1	0,000	117,238	1729,257
1	0,000	117,238	1729,358
1	0,000	117,238	1729,660
1	0,000	117,238	1729,861
1	0,000	117,238	1730,063
1	0,000	117,288	1730,164
1	0,000	117,288	1730,365
1	0,000	117,288	1730,566
1	0,000	117,288	1730,667
1	0,000	117,288	1730,768
1	0,000	117,338	1731,070
1	0,000	117,338	1731,171
1	0,000	117,338	1731,372
1	0,000	117,338	1731,573
1	0,000	117,338	1731,775
1	0,000	117,388	1731,976
1	0,000	117,388	1732,178
1	0,000	117,388	1731,976
1	0,000	117,388	1732,480
1	0,000	117,388	1732,681
1	0,000	117,438	1732,782
1	0,000	117,438	1732,983
1	0,000	117,438	1733,185
1	0,000	117,438	1733,386
1	0,000	117,438	1733,588
1	0,000	117,488	1733,789
1	0,000	117,488	1733,789
1	0,000	117,488	1734,091
1	0,000	117,488	1734,293
1	0,000	117,488	1734,393
1	0,000	117,538	1734,595
1	0,000	117,538	1734,796
1	0,000	117,538	1734,897
1	0,000	117,538	1735,199
1	0,000	117,538	1735,400
1	0,000	117,589	1735,501
1	0,000	117,589	1735,703
1	0,000	117,589	1735,904
1	0,000	117,589	1736,105
1	0,000	117,589	1736,307
1	0,000	117,639	1736,407
1	0,000	117,639	1736,609
1	0,000	117,639	1736,810
1	0,000	117,639	1736,911
1	0,000	117,639	1737,112
1	0,000	117,689	1737,213
1	0,000	117,689	1737,415
1	0,000	117,689	1737,616
1	0,000	117,689	1737,918
1	0,000	117,689	1738,019
1	0,000	117,740	1738,120
1	0,000	117,740	1738,422
1	0,000	117,740	1738,724
1	0,000	117,740	1738,724
1	0,000	117,740	1738,925
1	0,000	117,789	1739,127
1	0,000	117,789	1739,227
1	0,000	117,789	1739,429
1	0,000	117,789	1739,630
1	0,000	117,789	1739,832
1	0,000	117,839	1739,932
1	0,000	117,839	1740,234
1	0,000	117,839	1740,436
1	0,000	117,839	1740,536
1	0,000	117,839	1740,738
1	0,000	117,890	1740,839
1	0,000	117,890	1740,839
1	0,000	117,890	1741,342
1	0,000	117,890	1741,443
1	0,000	117,890	1741,644
1	0,000	117,939	1741,745
1	0,000	117,939	1741,946
1	0,000	117,939	1742,148
1	0,000	117,939	1742,349
1	0,000	117,939	1742,651
1	0,000	117,990	1742,853
1	0,000	117,990	1742,853
1	0,000	117,990	1743,054
1	0,000	117,990	1743,155
1	0,000	117,990	1743,356
1	0,000	118,040	1743,558
1	0,000	118,040	1743,759
1	0,000	118,040	1743,961
1	0,000	118,040	1744,162
1	0,000	118,040	1744,263
1	0,000	118,090	1744,464
1	0,000	118,090	1744,666
1	0,000	118,090	1744,867
1	0,000	118,090	1745,169
1	0,000	118,090	1745,270
1	0,000	118,141	1745,370
1	0,000	118,141	1745,572
1	0,000	118,141	1745,773
1	0,000	118,141	1745,975
1	0,000	118,141	1746,176
1	0,000	118,191	1746,277
1	0,000	118,191	1746,378
1	0,000	118,191	1746,680
1	0,000	118,191	1746,780
1	0,000	118,191	1746,982
1	0,000	118,241	1747,284
1	0,000	118,241	1747,485
1	0,000	118,241	1747,586
1	0,000	118,241	1747,787
1	0,000	118,241	1747,888
1	0,000	118,291	1748,190
1	0,000	118,291	1748,492
1	0,000	118,291	1748,593
1	0,000	118,291	1748,593
1	0,000	118,291	1748,895
1	0,000	118,342	1749,197
1	0,000	118,342	1749,298
1	0,000	118,342	1749,500
1	0,000	118,342	1749,600
1	0,000	118,342	1749,701
1	0,000	118,392	1750,104
1	0,000	118,392	1750,204
1	0,000	118,392	1750,507
1	0,000	118,392	1750,607
1	0,000	118,392	1750,809
1	0,000	118,442	1750,909
1	0,000	118,442	1751,010
1	0,000	118,442	1751,212
1	0,000	118,442	1751,111
1	0,000	118,442	1751,514
1	0,000	118,492	1751,715
1	0,000	118,492	1751,917
1	0,000	118,492	1752,118
1	0,000	118,492	1752,420
1	0,000	118,492	1752,521
1	0,000	118,542	1752,621
1	0,000	118,542	1752,823
1	0,000	118,542	1752,924
1	0,000	118,542	1753,226
1	0,000	118,542	1753,427
1	0,000	118,593	1753,528
1	0,000	118,593	1753,729
1	0,000	118,593	1753,931
1	0,000	118,593	1754,031
1	0,000	118,593	1754,233
1	0,000	118,643	1754,434
1	0,000	118,643	1754,736
1	0,000	118,643	1755,038
1	0,000	118,643	1755,038
1	0,000	118,643	1755,139
1	0,000	118,693	1755,139
1	0,000	118,693	1755,542
1	0,000	118,693	1755,743
1	0,000	118,693	1755,844
1	0,000	118,693	1756,046
1	0,000	118,744	1756,247
1	0,000	118,744	1756,448
1	0,000	118,744	1756,650
1	0,000	118,744	1756,750
1	0,000	118,744	1756,952
1	0,000	118,794	1757,153
1	0,000	118,794	1757,355
1	0,000	118,794	1757,657
1	0,000	118,794	1757,657
1	0,000	118,794	1757,858
1	0,000	118,844	1757,959
1	0,000	118,844	1758,261
1	0,000	118,844	1758,463
1	0,000	118,844	1758,563
1	0,000	118,844	1758,865
1	0,000	118,894	1758,966
1	0,000	118,894	1759,067
1	0,000	118,894	1759,268
1	0,000	118,894	1759,470
1	0,000	118,894	1759,772
1	0,000	118,944	1759,772
1	0,000	118,944	1760,074
1	0,000	118,944	1760,275
1	0,000	118,944	1760,376
1	0,000	118,944	1760,577
1	0,000	118,994	1760,678
1	0,000	118,994	1760,980
1	0,000	118,994	1761,182
1	0,000	118,994	1761,282
1	0,000	118,994	1761,584
1	0,000	119,044	1761,786
1	0,000	119,044	1761,987
1	0,000	119,044	1762,088
1	0,000	119,044	1762,289
1	0,000	119,044	1762,390
1	0,000	119,094	1762,592
1	0,000	119,094	1762,793
1	0,000	119,094	1762,994
1	0,000	119,094	1763,297
1	0,000	119,094	1763,397
1	0,000	119,144	1763,498
1	0,000	119,144	1763,699
1	0,000	119,144	1763,901
1	0,000	119,144	1764,102
1	0,000	119,144	1764,304
1	0,000	119,194	1764,404
1	0,000	119,194	1764,606
1	0,000	119,194	1764,505
1	0,000	119,194	1765,009
1	0,000	119,194	1765,210
1	0,000	119,244	1765,411
1	0,000	119,244	1765,512
1	0,000	119,244	1765,714
1	0,000	119,244	1766,016
1	0,000	119,244	1766,016
1	0,000	119,294	1766,318
1	0,000	119,294	1766,217
1	0,000	119,294	1766,721
1	0,000	119,294	1766,821
1	0,000	119,294	1767,023
1	0,000	119,345	1767,224
1	0,000	119,345	1767,325
1	0,000	119,345	1767,526
1	0,000	119,345	1767,728
1	0,000	119,345	1767,929
1	0,000	119,394	1768,130
1	0,000	119,394	1768,332
1	0,000	119,394	1768,533
1	0,000	119,394	1768,634
1	0,000	119,394	1768,835
1	0,000	119,445	1769,037
1	0,000	119,445	1769,138
1	0,000	119,445	1769,440
1	0,000	119,445	1769,641
1	0,000	119,445	1769,742
1	0,000	119,494	1769,943
1	0,000	119,494	1770,145
1	0,000	119,494	1770,346
1	0,000	119,494	1770,447
1	0,000	119,494	1770,648
1	0,000	119,545	1770,850
1	0,000	119,545	1771,051
1	0,000	119,545	1771,152
1	0,000	119,545	1771,353
1	0,000	119,545	1771,555
1	0,000	119,545	1771,857
1	0,000	119,595	1772,058
1	0,000	119,595	1772,260
1	0,000	119,595	1772,360
1	0,000	119,595	1772,461
1	0,000	119,645	1772,763
1	0,000	119,645	1772,864
1	0,000	119,645	1773,065
1	0,000	119,645	1773,267
1	0,000	119,645	1773,468
1	0,000	119,645	1773,669
1	0,000	119,695	1773,770
1	0,000	119,695	1773,972
1	0,000	119,695	1774,173
1	0,000	119,695	1774,374
1	0,000	119,745	1774,475
1	0,000	119,745	1774,677
1	0,000	119,745	1774,878
1	0,000	119,745	1775,079
1	0,000	119,745	1775,281
1	0,000	119,795	1775,482
1	0,000	119,795	1775,583
1	0,000	119,795	1775,885
1	0,000	119,795	1775,986
1	0,000	119,795	1776,288
1	0,000	119,845	1776,389
1	0,000	119,845	1776,590
1	0,000	119,845	1776,791
1	0,000	119,845	1776,892
1	0,000	119,845	1777,194
1	0,000	119,895	1777,295
1	0,000	119,895	1777,597
1	0,000	119,895	1777,798
1	0,000	119,895	1778,000
1	0,000	119,895	1778,302
1	0,000	119,945	1778,302
1	0,000	119,945	1778,604
1	0,000	119,945	1778,503
1	0,000	119,945	1778,906
1	0,000	119,945	1779,007
1	0,000	119,995	1779,108
1	0,000	119,995	1779,410
1	0,000	119,995	1779,510
1	0,000	119,995	1779,712
1	0,000	119,995	1779,913
1	0,000	119,995	1780,115
1	0,000	120,045	1780,316
1	0,000	120,045	1780,518
1	0,000	120,045	1780,719
1	0,000	120,045	1780,920
1	0,000	120,045	1781,122
1	0,000	120,095	1781,223
1	0,000	120,095	1781,424
1	0,000	120,095	1781,525
1	0,000	120,095	1781,726
1	0,000	120,145	1782,028
1	0,000	120,145	1782,230
1	0,000	120,145	1782,330
1	0,000	120,145	1782,532
1	0,000	120,145	1782,733
1	0,000	120,145	1782,834
1	0,000	120,195	1783,035
1	0,000	120,195	1783,237
1	0,000	120,195	1783,438
1	0,000	120,195	1783,640
1	0,000	120,245	1783,841
1	0,000	120,245	1784,042
1	0,000	120,245	1784,244
1	0,000	120,245	1784,445
1	0,000	120,245	1784,546
1	0,000	120,295	1784,647
1	0,000	120,295	1785,150
1	0,000	120,295	1785,150
1	0,000	120,295	1785,352
1	0,000	120,295	1785,553
1	0,000	120,295	1785,754
1	0,000	120,345	1785,956
1	0,000	120,345	1786,057
1	0,000	120,345	1786,258
1	0,000	120,345	1786,459
1	0,000	120,395	1786,661
1	0,000	120,395	1786,761
1	0,000	120,395	1787,064
1	0,000	120,395	1787,164
1	0,000	120,395	1787,265
1	0,000	120,445	1787,567
1	0,000	120,445	1787,668
1	0,000	120,445	1787,970
1	0,000	120,445	1788,171
1	0,000	120,445	1788,373
1	0,000	120,445	1788,574
1	0,000	120,495	1788,776
1	0,000	120,495	1788,977
1	0,000	120,495	1789,078
1	0,000	120,495	1789,380
1	0,000	120,545	1789,481
1	0,000	120,545	1789,682
1	0,000	120,545	1789,279
1	0,000	120,545	1790,085
1	0,000	120,545	1790,286
1	0,000	120,545	1790,387
1	0,000	120,595	1790,689
1	0,000	120,595	1790,790
1	0,000	120,595	1790,991
1	0,000	120,595	1791,293
1	0,000	120,595	1791,394
1	0,000	120,645	1791,595
1	0,000	120,645	1791,696
1	0,000	120,645	1791,898
1	0,000	120,645	1792,099
1	0,000	120,695	1792,099
1	0,000	120,695	1792,502
1	0,000	120,695	1792,703
1	0,000	120,695	1792,905
1	0,000	120,695	1793,005
1	0,000	120,745	1793,207
1	0,000	120,745	1793,408
1	0,000	120,745	1793,610
1	0,000	120,745	1793,811
1	0,000	120,745	1794,012
1	0,000	120,745	1794,214
1	0,000	120,795	1794,315
1	0,000	120,795	1794,516
1	0,000	120,795	1794,818
1	0,000	120,795	1794,919
1	0,000	120,845	1795,120
1	0,000	120,845	1795,322
1	0,000	120,845	1795,523
1	0,000	120,845	1795,624
1	0,000	120,845	1795,926
1	0,000	120,845	1796,127
1	0,000	120,895	1796,228
1	0,000	120,895	1796,429
1	0,000	120,895	1796,631
1	0,000	120,895	1796,832
1	0,000	120,895	1797,034
1	0,000	120,945	1797,134
1	0,000	120,945	1797,437
1	0,000	120,945	1797,537
1	0,000	120,945	1797,739
1	0,000	120,995	1797,940
1	0,000	120,995	1798,041
1	0,000	120,995	1798,343
1	0,000	120,995	1798,544
1	0,000	120,995	1798,746
1	0,000	120,995	1798,947
1	0,000	121,045	1799,149
1	0,000	121,045	1799,249
1	0,000	121,045	1799,451
1	0,000	121,045	1799,652
1	0,000	121,095	1799,854
1	0,000	121,095	1800,055
1	0,000	121,095	1800,156
1	0,000	121,095	1800,458
1	0,000	121,095	1800,558
1	0,000	121,145	1800,760
1	0,000	121,145	1801,062
1	0,000	121,145	1801,163
1	0,000	121,145	1801,364
1	0,000	121,145	1801,566
1	0,000	121,145	1801,767
1	0,000	121,195	1801,968
1	0,000	121,195	1802,170
1	0,000	121,195	1802,271
1	0,000	121,195	1802,472
1	0,000	121,195	1802,774
1	0,000	121,245	1802,875
1	0,000	121,245	1803,076
1	0,000	121,245	1803,378
1	0,000	121,245	1803,580
1	0,000	121,245	1803,680
1	0,000	121,295	1803,882
1	0,000	121,295	1803,882
1	0,000	121,295	1804,285
1	0,000	121,295	1804,486
1	0,000	121,295	1804,587
1	0,000	121,345	1804,788
1	0,000	121,345	1804,990
1	0,000	121,345	1805,191
1	0,000	121,345	1805,392
1	0,000	121,345	1805,594
1	0,000	121,395	1805,795
1	0,000	121,395	1805,997
1	0,000	121,395	1806,198
1	0,000	121,395	1806,400
1	0,000	121,395	1806,601
1	0,000	121,445	1806,802
1	0,000	121,445	1807,004
1	0,000	121,445	1807,104
1	0,000	121,445	1807,205
1	0,000	121,445	1807,507
1	0,000	121,495	1807,709
1	0,000	121,495	1807,809
1	0,000	121,495	1808,011
1	0,000	121,495	1808,313
1	0,000	121,495	1808,414
1	0,000	121,545	1808,615
1	0,000	121,545	1808,716
1	0,000	121,545	1809,018
1	0,000	121,545	1809,219
1	0,000	121,545	1809,421
1	0,000	121,595	1809,622
1	0,000	121,595	1809,824
1	0,000	121,595	1810,025
1	0,000	121,595	1810,226
1	0,000	121,595	1810,327
1	0,000	121,645	1810,529
1	0,000	121,645	1810,730
1	0,000	121,645	1810,931
1	0,000	121,645	1811,032
1	0,000	121,645	1811,133
1	0,000	121,695	1811,536
1	0,000	121,695	1811,636
1	0,000	121,695	1811,838
1	0,000	121,695	1812,140
1	0,000	121,695	1812,241
1	0,000	121,745	1812,442
1	0,000	121,745	1812,643
1	0,000	121,745	1812,845
1	0,000	121,745	1813,046
1	0,000	121,745	1813,147
1	0,000	121,796	1813,248
1	0,000	121,796	1813,651
1	0,000	121,796	1813,852
1	0,000	121,796	1813,953
1	0,000	121,796	1814,255
1	0,000	121,845	1814,557
1	0,000	121,845	1814,557
1	0,000	121,845	1814,758
1	0,000	121,845	1814,960
1	0,000	121,845	1815,161
1	0,000	121,895	1815,363
1	0,000	121,895	1815,564
1	0,000	121,895	1815,665
1	0,000	121,895	1815,866
1	0,000	121,895	1816,168
1	0,000	121,945	1816,269
1	0,000	121,945	1816,370
1	0,000	121,945	1816,672
1	0,000	121,945	1816,873
1	0,000	121,945	1817,075
1	0,000	121,995	1817,276
1	0,000	121,995	1817,477
1	0,000	121,995	1817,679
1	0,000	121,995	1817,880
1	0,000	121,995	1818,082
1	0,000	122,045	1818,283
1	0,000	122,045	1818,484
1	0,000	122,045	1818,686
1	0,000	122,045	1818,887
1	0,000	122,045	1818,988
1	0,000	122,095	1819,290
1	0,000	122,095	1819,492
1	0,000	122,095	1819,794
1	0,000	122,095	1819,995
1	0,000	122,095	1819,995
1	0,000	122,146	1820,096
1	0,000	122,146	1820,398
1	0,000	122,146	1820,599
1	0,000	122,146	1820,801
1	0,000	122,146	1820,901
1	0,000	122,195	1821,204
1	0,000	122,195	1821,304
1	0,000	122,195	1821,506
1	0,000	122,195	1821,707
1	0,000	122,195	1821,909
1	0,000	122,245	1822,110
1	0,000	122,245	1822,311
1	0,000	122,245	1822,513
1	0,000	122,245	1822,412
1	0,000	122,245	1822,714
1	0,000	122,295	1823,117
1	0,000	122,295	1823,318
1	0,000	122,295	1823,520
1	0,000	122,295	1823,721
1	0,000	122,295	1823,923
1	0,000	122,345	1824,023
1	0,000	122,345	1824,326
1	0,000	122,345	1824,527
1	0,000	122,345	1824,728
1	0,000	122,345	1824,829
1	0,000	122,395	1825,031
1	0,000	122,395	1825,232
1	0,000	122,395	1825,433
1	0,000	122,395	1825,635
1	0,000	122,395	1825,735
1	0,000	122,446	1826,038
1	0,000	122,446	1826,138
1	0,000	122,446	1826,340
1	0,000	122,446	1826,541
1	0,000	122,446	1826,743
1	0,000	122,496	1827,045
1	0,000	122,496	1827,145
1	0,000	122,496	1827,448
1	0,000	122,496	1827,548
1	0,000	122,496	1827,750
1	0,000	122,546	1827,951
1	0,000	122,546	1828,052
1	0,000	122,546	1828,354
1	0,000	122,546	1828,555
1	0,000	122,546	1828,656
1	0,000	122,596	1828,958
1	0,000	122,596	1829,059
1	0,000	122,596	1829,361
1	0,000	122,596	1829,562
1	0,000	122,596	1829,663
1	0,000	122,646	1829,865
1	0,000	122,646	1830,167
1	0,000	122,646	1830,368
1	0,000	122,646	1830,469
1	0,000	122,646	1830,670
1	0,000	122,696	1830,872
1	0,000	122,696	1831,174
1	0,000	122,696	1831,274
1	0,000	122,696	1831,577
1	0,000	122,696	1831,677
1	0,000	122,746	1831,879
1	0,000	122,746	1832,080
1	0,000	122,746	1832,281
1	0,000	122,746	1832,483
1	0,000	122,746	1832,684
1	0,000	122,796	1832,986
1	0,000	122,796	1833,087
1	0,000	122,796	1833,188
1	0,000	122,796	1833,490
1	0,000	122,796	1833,591
1	0,000	122,846	1833,893
1	0,000	122,846	1834,094
1	0,000	122,846	1834,296
1	0,000	122,846	1834,497
1	0,000	122,846	1834,698
1	0,000	122,896	1834,799
1	0,000	122,896	1834,900
1	0,000	122,896	1835,202
1	0,000	122,896	1835,403
1	0,000	122,896	1835,605
1	0,000	122,946	1835,806
1	0,000	122,946	1836,008
1	0,000	122,946	1836,209
1	0,000	122,946	1836,310
1	0,000	122,946	1836,612
1	0,000	122,996	1836,813
1	0,000	122,996	1837,015
1	0,000	122,996	1837,216
1	0,000	122,996	1837,418
1	0,000	122,996	1837,619
1	0,000	123,046	1837,820
1	0,000	123,046	1838,022
1	0,000	123,046	1838,223
1	0,000	123,046	1838,425
1	0,000	123,046	1838,626
1	0,000	123,096	1838,727
1	0,000	123,096	1838,928
1	0,000	123,096	1839,130
1	0,000	123,096	1839,331
1	0,000	123,096	1839,532
1	0,000	123,146	1839,734
1	0,000	123,146	1839,734
1	0,000	123,146	1840,036
1	0,000	123,146	1840,338
1	0,000	123,146	1840,540
1	0,000	123,196	1840,741
1	0,000	123,196	1840,942
1	0,000	123,196	1841,144
1	0,000	123,196	1841,345
1	0,000	123,196	1841,547
1	0,000	123,246	1841,748
1	0,000	123,246	1841,949
1	0,000	123,246	1842,151
1	0,000	123,246	1841,849
1	0,000	123,246	1842,755
1	0,000	123,296	1842,654
1	0,000	123,296	1842,957
1	0,000	123,296	1843,158
1	0,000	123,296	1843,359
1	0,000	123,296	1843,460
1	0,000	123,346	1843,661
1	0,000	123,346	1843,561
1	0,000	123,346	1844,064
1	0,000	123,346	1844,266
1	0,000	123,346	1844,467
1	0,000	123,396	1844,669
1	0,000	123,396	1844,870
1	0,000	123,396	1845,172
1	0,000	123,396	1845,374
1	0,000	123,396	1845,474
1	0,000	123,446	1845,776
1	0,000	123,446	1845,978
1	0,000	123,446	1846,179
1	0,000	123,446	1846,381
1	0,000	123,446	1846,481
1	0,000	123,496	1846,582
1	0,000	123,496	1846,884
1	0,000	123,496	1847,086
1	0,000	123,496	1847,287
1	0,000	123,496	1847,488
1	0,000	123,546	1847,690
1	0,000	123,546	1847,891
1	0,000	123,546	1848,093
1	0,000	123,546	1848,395
1	0,000	123,546	1848,596
1	0,000	123,596	1848,798
1	0,000	123,596	1848,999
1	0,000	123,596	1849,100
1	0,000	123,596	1849,301
1	0,000	123,596	1849,503
1	0,000	123,646	1849,704
1	0,000	123,646	1849,905
1	0,000	123,646	1850,107
1	0,000	123,646	1850,208
1	0,000	123,646	1850,510
1	0,000	123,697	1850,610
1	0,000	123,697	1850,812
1	0,000	123,697	1851,013
1	0,000	123,697	1851,315
1	0,000	123,697	1851,517
1	0,000	123,747	1851,617
1	0,000	123,747	1851,920
1	0,000	123,747	1852,020
1	0,000	123,747	1852,322
1	0,000	123,747	1852,423
1	0,000	123,797	1852,725
1	0,000	123,797	1852,927
1	0,000	123,797	1853,027
1	0,000	123,797	1853,229
1	0,000	123,797	1853,531
1	0,000	123,847	1853,732
1	0,000	123,847	1853,833
1	0,000	123,847	1854,034
1	0,000	123,847	1854,236
1	0,000	123,847	1854,538
1	0,000	123,897	1854,639
1	0,000	123,897	1854,840
1	0,000	123,897	1855,042
1	0,000	123,897	1855,344
1	0,000	123,897	1855,545
1	0,000	123,947	1855,646
1	0,000	123,947	1855,948
1	0,000	123,947	1856,149
1	0,000	123,947	1856,250
1	0,000	123,947	1856,451
1	0,000	123,997	1856,653
1	0,000	123,997	1856,854
1	0,000	123,997	1857,056
1	0,000	123,997	1857,358
1	0,000	123,997	1857,257
1	0,000	124,047	1857,761
1	0,000	124,047	1857,861
1	0,000	124,047	1858,163
1	0,000	124,047	1858,365
1	0,000	124,047	1858,566
1	0,000	124,098	1858,667
1	0,000	124,098	1858,969
1	0,000	124,098	1859,171
1	0,000	124,098	1859,070
1	0,000	124,098	1859,473
1	0,000	124,148	1859,573
1	0,000	124,148	1860,077
1	0,000	124,148	1860,077
1	0,000	124,148	1860,278
1	0,000	124,148	1860,480
1	0,000	124,199	1860,681
1	0,000	124,199	1860,883
1	0,000	124,199	1861,185
1	0,000	124,199	1861,084
1	0,000	124,199	1861,487
1	0,000	124,249	1861,688
1	0,000	124,249	1861,990
1	0,000	124,249	1862,192
1	0,000	124,249	1862,292
1	0,000	124,249	1862,595
1	0,000	124,299	1862,695
1	0,000	124,299	1862,897
1	0,000	124,299	1863,098
1	0,000	124,299	1863,199
1	0,000	124,299	1863,501
1	0,000	124,350	1863,501
1	0,000	124,350	1863,904
1	0,000	124,350	1864,105
1	0,000	124,350	1864,307
1	0,000	124,350	1864,508
1	0,000	124,399	1864,709
1	0,000	124,399	1865,012
1	0,000	124,399	1865,213
1	0,000	124,399	1865,314
1	0,000	124,399	1865,515
1	0,000	124,450	1865,717
1	0,000	124,450	1865,918
1	0,000	124,450	1866,119
1	0,000	124,450	1866,321
1	0,000	124,450	1866,422
1	0,000	124,500	1866,724
1	0,000	124,500	1866,925
1	0,000	124,500	1867,126
1	0,000	124,500	1867,328
1	0,000	124,500	1867,529
1	0,000	124,550	1867,731
1	0,000	124,550	1867,932
1	0,000	124,550	1868,033
1	0,000	124,550	1868,335
1	0,000	124,550	1868,536
1	0,000	124,600	1868,738
1	0,000	124,600	1868,939
1	0,000	124,600	1869,241
1	0,000	124,600	1869,443
1	0,000	124,600	1869,543
1	0,000	124,650	1869,745
1	0,000	124,650	1869,644
1	0,000	124,650	1870,148
1	0,000	124,650	1870,349
1	0,000	124,650	1870,551
1	0,000	124,700	1870,450
1	0,000	124,700	1870,752
1	0,000	124,700	1871,255
1	0,000	124,700	1871,356
1	0,000	124,700	1871,558
1	0,000	124,749	1871,759
1	0,000	124,749	1872,061
1	0,000	124,749	1872,162
1	0,000	124,749	1872,363
1	0,000	124,749	1872,565
1	0,000	124,800	1872,867
1	0,000	124,800	1873,068
1	0,000	124,800	1873,169
1	0,000	124,800	1873,370
1	0,000	124,800	1873,370
1	0,000	124,850	1873,773
1	0,000	124,850	1873,874
1	0,000	124,850	1874,075
1	0,000	124,850	1874,377
1	0,000	124,850	1874,579
1	0,000	124,900	1874,881
1	0,000	124,900	1874,982
1	0,000	124,900	1875,284
1	0,000	124,900	1875,385
1	0,000	124,900	1875,687
1	0,000	124,950	1875,787
1	0,000	124,950	1875,989
1	0,000	124,950	1876,291
1	0,000	124,950	1876,492
1	0,000	124,950	1876,794
1	0,000	125,000	1876,996
1	0,000	125,000	1877,097
1	0,000	125,000	1877,298
1	0,000	125,000	1877,499
1	0,000	125,000	1877,600
1	0,000	125,051	1877,701
1	0,000	125,051	1878,003
1	0,000	125,051	1878,305
1	0,000	125,051	1878,506
1	0,000	125,051	1878,708
1	0,000	125,101	1878,909
1	0,000	125,101	1879,111
1	0,000	125,101	1879,312
1	0,000	125,101	1879,514
1	0,000	125,101	1879,614
1	0,000	125,151	1879,916
1	0,000	125,151	1880,118
1	0,000	125,151	1880,319
1	0,000	125,151	1880,521
1	0,000	125,151	1880,722
1	0,000	125,201	1880,923
1	0,000	125,201	1881,326
1	0,000	125,201	1881,326
1	0,000	125,201	1881,528
1	0,000	125,201	1881,729
1	0,000	125,251	1882,031
1	0,000	125,251	1882,233
1	0,000	125,251	1882,333
1	0,000	125,251	1882,535
1	0,000	125,251	1882,736
1	0,000	125,301	1882,938
1	0,000	125,301	1883,240
1	0,000	125,301	1883,340
1	0,000	125,301	1883,441
1	0,000	125,301	1883,844
1	0,000	125,351	1884,146
1	0,000	125,351	1884,348
1	0,000	125,351	1884,348
1	0,000	125,351	1884,650
1	0,000	125,351	1884,952
1	0,000	125,401	1885,153
1	0,000	125,401	1885,355
1	0,000	125,401	1885,556
1	0,000	125,401	1885,858
1	0,000	125,401	1885,959
1	0,000	125,452	1886,160
1	0,000	125,452	1886,563
1	0,000	125,452	1886,765
1	0,000	125,452	1886,966
1	0,000	125,452	1887,167
1	0,000	125,501	1887,268
1	0,000	125,501	1887,469
1	0,000	125,501	1887,772
1	0,000	125,501	1887,973
1	0,000	125,501	1888,074
1	0,000	125,551	1888,275
1	0,000	125,551	1888,174
1	0,000	125,551	1888,779
1	0,000	125,551	1888,879
1	0,000	125,551	1889,182
1	0,000	125,601	1889,081
1	0,000	125,601	1889,182
1	0,000	125,601	1889,886
1	0,000	125,601	1890,088
1	0,000	125,601	1890,289
1	0,000	125,652	1890,491
1	0,000	125,652	1890,692
1	0,000	125,652	1890,793
1	0,000	125,652	1890,894
1	0,000	125,652	1891,196
1	0,000	125,652	1891,397
1	0,000	125,702	1891,599
1	0,000	125,702	1891,800
1	0,000	125,702	1892,001
1	0,000	125,702	1892,203
1	0,000	125,753	1892,404
1	0,000	125,753	1892,606
1	0,000	125,753	1892,908
1	0,000	125,753	1893,210
1	0,000	125,753	1893,311
1	0,000	125,753	1893,613
1	0,000	125,803	1893,713
1	0,000	125,803	1893,915
1	0,000	125,803	1894,116
1	0,000	125,803	1894,318
1	0,000	125,803	1894,620
1	0,000	125,853	1894,720
1	0,000	125,853	1894,922
1	0,000	125,853	1895,123
1	0,000	125,853	1895,425
1	0,000	125,853	1895,627
1	0,000	125,902	1895,828
1	0,000	125,902	1896,030
1	0,000	125,902	1896,231
1	0,000	125,902	1896,533
1	0,000	125,953	1896,634
1	0,000	125,953	1896,936
1	0,000	125,953	1897,137
1	0,000	125,953	1897,339
1	0,000	125,953	1897,540
1	0,000	125,953	1897,641
1	0,000	126,002	1897,943
1	0,000	126,002	1898,145
1	0,000	126,002	1898,245
1	0,000	126,002	1898,547
1	0,000	126,002	1898,648
1	0,000	126,052	1898,950
1	0,000	126,052	1899,051
1	0,000	126,052	1899,454
1	0,000	126,052	1899,655
1	0,000	126,052	1899,857
1	0,000	126,103	1899,957
1	0,000	126,103	1900,058
1	0,000	126,103	1900,461
1	0,000	126,103	1900,562
1	0,000	126,103	1900,864
1	0,000	126,152	1900,964
1	0,000	126,152	1901,266
1	0,000	126,152	1901,367
1	0,000	126,152	1901,468
1	0,000	126,152	1901,871
1	0,000	126,203	1901,971
1	0,000	126,203	1902,374
1	0,000	126,203	1902,576
1	0,000	126,203	1902,777
1	0,000	126,203	1902,878
1	0,000	126,253	1903,079
1	0,000	126,253	1903,079
1	0,000	126,253	1903,583
1	0,000	126,253	1903,683
1	0,000	126,253	1903,885
1	0,000	126,303	1904,086
1	0,000	126,303	1904,388
1	0,000	126,303	1904,489
1	0,000	126,303	1904,691
1	0,000	126,303	1904,892
1	0,000	126,352	1905,093
1	0,000	126,352	1905,396
1	0,000	126,352	1905,698
1	0,000	126,352	1905,899
1	0,000	126,352	1906,000
1	0,000	126,403	1906,302
1	0,000	126,403	1906,302
1	0,000	126,403	1906,705
1	0,000	126,403	1906,906
1	0,000	126,403	1907,108
1	0,000	126,453	1907,208
1	0,000	126,453	1907,410
1	0,000	126,453	1907,712
1	0,000	126,453	1907,812
1	0,000	126,453	1908,115
1	0,000	126,503	1908,316
1	0,000	126,503	1908,517
1	0,000	126,503	1908,820
1	0,000	126,503	1908,920
1	0,000	126,503	1909,021
1	0,000	126,553	1909,021
1	0,000	126,553	1909,625
1	0,000	126,553	1909,827
1	0,000	126,553	1910,028
1	0,000	126,553	1910,229
1	0,000	126,603	1910,330
1	0,000	126,603	1910,632
1	0,000	126,603	1910,733
1	0,000	126,603	1911,035
1	0,000	126,603	1911,136
1	0,000	126,653	1911,337
1	0,000	126,653	1911,539
1	0,000	126,653	1911,740
1	0,000	126,653	1912,042
1	0,000	126,653	1912,344
1	0,000	126,703	1912,445
1	0,000	126,703	1912,646
1	0,000	126,703	1912,848
1	0,000	126,703	1913,150
1	0,000	126,703	1913,251
1	0,000	126,754	1913,553
1	0,000	126,754	1913,754
1	0,000	126,754	1913,956
1	0,000	126,754	1914,157
1	0,000	126,754	1914,359
1	0,000	126,804	1914,560
1	0,000	126,804	1914,862
1	0,000	126,804	1915,164
1	0,000	126,804	1915,265
1	0,000	126,804	1915,466
1	0,000	126,854	1915,668
1	0,000	126,854	1915,869
1	0,000	126,854	1916,071
1	0,000	126,854	1916,272
1	0,000	126,854	1916,473
1	0,000	126,904	1916,675
1	0,000	126,904	1916,876
1	0,000	126,904	1917,178
1	0,000	126,904	1917,380
1	0,000	126,904	1917,581
1	0,000	126,954	1917,783
1	0,000	126,954	1918,286
1	0,000	126,954	1918,085
1	0,000	126,954	1918,588
1	0,000	126,954	1918,790
1	0,000	127,004	1918,991
1	0,000	127,004	1919,193
1	0,000	127,004	1919,293
1	0,000	127,004	1919,495
1	0,000	127,004	1919,696
1	0,000	127,054	1919,897
1	0,000	127,054	1920,200
1	0,000	127,054	1920,300
1	0,000	127,054	1920,602
1	0,000	127,054	1920,804
1	0,000	127,104	1921,106
1	0,000	127,104	1921,106
1	0,000	127,104	1921,408
1	0,000	127,104	1921,811
1	0,000	127,104	1921,912
1	0,000	127,154	1922,113
1	0,000	127,154	1922,314
1	0,000	127,154	1922,617
1	0,000	127,154	1922,818
1	0,000	127,154	1923,019
1	0,000	127,204	1923,322
1	0,000	127,204	1923,422
1	0,000	127,204	1923,724
1	0,000	127,204	1923,825
1	0,000	127,204	1924,127
1	0,000	127,254	1924,429
1	0,000	127,254	1924,329
1	0,000	127,254	1924,731
1	0,000	127,254	1925,034
1	0,000	127,254	1925,336
1	0,000	127,305	1925,336
1	0,000	127,305	1925,638
1	0,000	127,305	1925,839
1	0,000	127,305	1926,242
1	0,000	127,305	1926,443
1	0,000	127,354	1926,645
1	0,000	127,354	1926,846
1	0,000	127,354	1926,947
1	0,000	127,354	1927,249
1	0,000	127,354	1927,451
1	0,000	127,404	1927,853
1	0,000	127,404	1927,954
1	0,000	127,404	1928,156
1	0,000	127,404	1928,357
1	0,000	127,404	1928,458
1	0,000	127,454	1928,760
1	0,000	127,454	1928,860
1	0,000	127,454	1929,062
1	0,000	127,454	1929,364
1	0,000	127,454	1929,565
1	0,000	127,504	1929,767
1	0,000	127,504	1930,069
1	0,000	127,504	1930,270
1	0,000	127,504	1930,472
1	0,000	127,504	1930,573
1	0,000	127,555	1930,975
1	0,000	127,555	1931,076
1	0,000	127,555	1931,378
1	0,000	127,555	1931,580
1	0,000	127,555	1931,781
1	0,000	127,605	1932,083
1	0,000	127,605	1932,285
1	0,000	127,605	1932,385
1	0,000	127,605	1932,587
1	0,000	127,605	1932,788
1	0,000	127,655	1932,990
1	0,000	127,655	1933,292
1	0,000	127,655	1933,493
1	0,000	127,655	1933,694
1	0,000	127,655	1933,997
1	0,000	127,705	1934,097
1	0,000	127,705	1934,399
1	0,000	127,705	1934,500
1	0,000	127,705	1934,802
1	0,000	127,705	1935,104
1	0,000	127,756	1935,306
1	0,000	127,756	1935,507
1	0,000	127,756	1935,709
1	0,000	127,756	1935,910
1	0,000	127,756	1936,212
1	0,000	127,805	1936,414
1	0,000	127,805	1936,615
1	0,000	127,805	1936,514
1	0,000	127,805	1937,119
1	0,000	127,805	1937,320
1	0,000	127,855	1937,521
1	0,000	127,855	1937,823
1	0,000	127,855	1937,924
1	0,000	127,855	1938,226
1	0,000	127,855	1938,428
1	0,000	127,906	1938,629
1	0,000	127,906	1938,629
1	0,000	127,906	1939,032
1	0,000	127,906	1939,233
1	0,000	127,906	1939,435
1	0,000	127,957	1939,636
1	0,000	127,957	1939,838
1	0,000	127,957	1939,938
1	0,000	127,957	1940,341
1	0,000	127,957	1940,543
1	0,000	128,006	1940,744
1	0,000	128,006	1941,046
1	0,000	128,006	1941,248
1	0,000	128,006	1941,449
1	0,000	128,006	1941,751
1	0,000	128,057	1941,953
1	0,000	128,057	1942,154
1	0,000	128,057	1942,355
1	0,000	128,057	1942,657
1	0,000	128,057	1942,758
1	0,000	128,107	1942,960
1	0,000	128,107	1943,161
1	0,000	128,107	1943,362
1	0,000	128,107	1943,665
1	0,000	128,107	1943,866
1	0,000	128,158	1944,168
1	0,000	128,158	1944,370
1	0,000	128,158	1944,571
1	0,000	128,158	1944,772
1	0,000	128,158	1945,074
1	0,000	128,208	1945,276
1	0,000	128,208	1945,477
1	0,000	128,208	1945,578
1	0,000	128,208	1945,981
1	0,000	128,208	1946,182
1	0,000	128,258	1946,283
1	0,000	128,258	1946,384
1	0,000	128,258	1946,786
1	0,000	128,258	1946,988
1	0,000	128,258	1947,189
1	0,000	128,308	1947,592
1	0,000	128,308	1947,794
1	0,000	128,308	1947,894
1	0,000	128,308	1948,096
1	0,000	128,308	1948,196
1	0,000	128,358	1948,398
1	0,000	128,358	1948,599
1	0,000	128,358	1948,901
1	0,000	128,358	1949,103
1	0,000	128,358	1949,405
1	0,000	128,409	1949,606
1	0,000	128,409	1949,707
1	0,000	128,409	1950,110
1	0,000	128,409	1950,211
1	0,000	128,409	1950,513
1	0,000	128,459	1950,412
1	0,000	128,459	1951,016
1	0,000	128,459	1951,218
1	0,000	128,459	1951,318
1	0,000	128,459	1951,520
1	0,000	128,509	1951,721
1	0,000	128,509	1951,923
1	0,000	128,509	1952,023
1	0,000	128,509	1952,325
1	0,000	128,509	1952,628
1	0,000	128,559	1952,930
1	0,000	128,559	1953,232
1	0,000	128,559	1953,433
1	0,000	128,559	1953,635
1	0,000	128,559	1953,735
1	0,000	128,609	1953,937
1	0,000	128,609	1954,138
1	0,000	128,609	1954,541
1	0,000	128,609	1954,742
1	0,000	128,609	1954,843
1	0,000	128,658	1955,045
1	0,000	128,658	1955,145
1	0,000	128,658	1955,447
1	0,000	128,658	1955,548
1	0,000	128,658	1955,850
1	0,000	128,709	1955,951
1	0,000	128,709	1956,354
1	0,000	128,709	1956,454
1	0,000	128,709	1956,757
1	0,000	128,709	1957,059
1	0,000	128,759	1957,260
1	0,000	128,759	1957,462
1	0,000	128,759	1957,663
1	0,000	128,759	1957,562
1	0,000	128,759	1958,167
1	0,000	128,809	1958,368
1	0,000	128,809	1958,569
1	0,000	128,809	1958,670
1	0,000	128,809	1958,871
1	0,000	128,809	1959,073
1	0,000	128,859	1959,375
1	0,000	128,859	1959,677
1	0,000	128,859	1959,778
1	0,000	128,859	1960,080
1	0,000	128,859	1960,281
1	0,000	128,909	1960,483
1	0,000	128,909	1960,684
1	0,000	128,909	1960,886
1	0,000	128,909	1961,087
1	0,000	128,909	1961,389
1	0,000	128,959	1961,691
1	0,000	128,959	1961,691
1	0,000	128,959	1962,094
1	0,000	128,959	1962,195
1	0,000	128,959	1962,396
1	0,000	129,009	1962,598
1	0,000	129,009	1962,799
1	0,000	129,009	1963,000
1	0,000	129,009	1963,303
1	0,000	129,009	1963,504
1	0,000	129,059	1963,705
1	0,000	129,059	1963,907
1	0,000	129,059	1964,108
1	0,000	129,059	1964,410
1	0,000	129,059	1964,612
1	0,000	129,109	1964,914
1	0,000	129,109	1965,216
1	0,000	129,109	1965,417
1	0,000	129,109	1965,619
1	0,000	129,109	1965,820
1	0,000	129,159	1965,921
1	0,000	129,159	1966,122
1	0,000	129,159	1966,223
1	0,000	129,159	1966,425
1	0,000	129,159	1966,727
1	0,000	129,209	1966,928
1	0,000	129,209	1967,130
1	0,000	129,209	1967,432
1	0,000	129,209	1967,734
1	0,000	129,209	1967,834
1	0,000	129,260	1968,137
1	0,000	129,260	1968,338
1	0,000	129,260	1968,640
1	0,000	129,260	1968,741
1	0,000	129,260	1968,942
1	0,000	129,309	1969,144
1	0,000	129,309	1969,446
1	0,000	129,309	1969,547
1	0,000	129,309	1969,849
1	0,000	129,309	1969,949
1	0,000	129,359	1970,251
1	0,000	129,359	1970,453
1	0,000	129,359	1970,755
1	0,000	129,359	1970,956
1	0,000	129,359	1971,259
1	0,000	129,409	1971,359
1	0,000	129,409	1971,661
1	0,000	129,409	1971,964
1	0,000	129,409	1971,964
1	0,000	129,409	1972,366
1	0,000	129,459	1972,467
1	0,000	129,459	1972,668
1	0,000	129,459	1972,870
1	0,000	129,459	1973,071
1	0,000	129,459	1973,273
1	0,000	129,509	1973,575
1	0,000	129,509	1973,575
1	0,000	129,509	1974,078
1	0,000	129,509	1974,179
1	0,000	129,509	1974,380
1	0,000	129,559	1974,683
1	0,000	129,559	1974,884
1	0,000	129,559	1975,186
1	0,000	129,559	1975,388
1	0,000	129,559	1975,589
1	0,000	129,610	1975,790
1	0,000	129,610	1975,891
1	0,000	129,610	1976,193
1	0,000	129,610	1976,294
1	0,000	129,610	1976,697
1	0,000	129,660	1976,797
1	0,000	129,660	1977,100
1	0,000	129,660	1977,200
1	0,000	129,660	1977,502
1	0,000	129,660	1977,704
1	0,000	129,710	1978,006
1	0,000	129,710	1978,409
1	0,000	129,710	1978,510
1	0,000	129,710	1978,711
1	0,000	129,710	1978,912
1	0,000	129,760	1979,214
1	0,000	129,760	1979,416
1	0,000	129,760	1979,617
1	0,000	129,760	1979,718
1	0,000	129,760	1979,919
1	0,000	129,810	1980,222
1	0,000	129,810	1980,322
1	0,000	129,810	1980,524
1	0,000	129,810	1980,826
1	0,000	129,810	1981,027
1	0,000	129,860	1981,329
1	0,000	129,860	1981,531
1	0,000	129,860	1981,833
1	0,000	129,860	1982,034
1	0,000	129,860	1982,236
1	0,000	129,910	1982,437
1	0,000	129,910	1982,639
1	0,000	129,910	1982,941
1	0,000	129,910	1983,041
1	0,000	129,910	1983,243
1	0,000	129,960	1983,444
1	0,000	129,960	1983,746
1	0,000	129,960	1983,948
1	0,000	129,960	1984,149
1	0,000	129,960	1984,351
1	0,000	130,010	1984,552
1	0,000	130,010	1984,854
1	0,000	130,010	1984,955
1	0,000	130,010	1985,358
1	0,000	130,010	1985,559
1	0,000	130,060	1985,760
1	0,000	130,060	1985,962
1	0,000	130,060	1986,163
1	0,000	130,060	1986,365
1	0,000	130,060	1986,566
1	0,000	130,110	1986,868
1	0,000	130,110	1987,070
1	0,000	130,110	1987,271
1	0,000	130,110	1987,573
1	0,000	130,110	1987,775
1	0,000	130,160	1987,775
1	0,000	130,160	1988,177
1	0,000	130,160	1988,278
1	0,000	130,160	1988,782
1	0,000	130,160	1988,882
1	0,000	130,160	1988,882
1	0,000	130,210	1989,084
1	0,000	130,210	1989,487
1	0,000	130,210	1989,688
1	0,000	130,210	1989,990
1	0,000	130,210	1990,192
1	0,000	130,261	1990,393
1	0,000	130,261	1990,494
1	0,000	130,261	1990,796
1	0,000	130,261	1990,997
1	0,000	130,261	1991,098
1	0,000	130,311	1991,501
1	0,000	130,311	1991,702
1	0,000	130,311	1991,904
1	0,000	130,311	1992,206
1	0,000	130,311	1992,407
1	0,000	130,361	1992,709
1	0,000	130,361	1992,911
1	0,000	130,361	1993,112
1	0,000	130,361	1993,314
1	0,000	130,361	1993,515
1	0,000	130,411	1993,616
1	0,000	130,411	1994,019
1	0,000	130,411	1994,119
1	0,000	130,411	1994,421
1	0,000	130,411	1994,724
1	0,000	130,461	1994,724
1	0,000	130,461	1995,026
1	0,000	130,461	1995,227
1	0,000	130,461	1995,529
1	0,000	130,461	1995,831
1	0,000	130,511	1996,033
1	0,000	130,511	1996,234
1	0,000	130,511	1996,436
1	0,000	130,511	1996,738
1	0,000	130,511	1996,939
1	0,000	130,561	1997,141
1	0,000	130,561	1997,443
1	0,000	130,561	1997,644
1	0,000	130,561	1997,845
1	0,000	130,561	1997,946
1	0,000	130,611	1998,148
1	0,000	130,611	1998,349
1	0,000	130,611	1998,651
1	0,000	130,611	1998,853
1	0,000	130,611	1999,155
1	0,000	130,661	1999,356
1	0,000	130,661	1999,557
1	0,000	130,661	1999,759
1	0,000	130,661	1999,960
1	0,000	130,661	2000,262
1	0,000	130,711	2000,464
1	0,000	130,711	2000,766
1	0,000	130,711	2000,967
1	0,000	130,711	2001,169
1	0,000	130,711	2001,370
1	0,000	130,762	2001,572
1	0,000	130,762	2001,773
1	0,000	130,762	2001,974
1	0,000	130,762	2002,176
1	0,000	130,762	2002,478
1	0,000	130,812	2002,780
1	0,000	130,812	2002,982
1	0,000	130,812	2003,183
1	0,000	130,812	2003,485
1	0,000	130,812	2003,687
1	0,000	130,863	2003,888
1	0,000	130,863	2004,089
1	0,000	130,863	2004,391
1	0,000	130,863	2004,593
1	0,000	130,863	2004,794
1	0,000	130,913	2004,996
1	0,000	130,913	2005,197
1	0,000	130,913	2005,399
1	0,000	130,913	2005,600
1	0,000	130,913	2005,902
1	0,000	130,963	2006,003
1	0,000	130,963	2006,204
1	0,000	130,963	2006,607
1	0,000	130,963	2006,808
1	0,000	130,963	2007,010
1	0,000	131,013	2007,413
1	0,000	131,013	2007,513
1	0,000	131,013	2007,715
1	0,000	131,013	2008,017
1	0,000	131,013	2008,118
1	0,000	131,063	2008,420
1	0,000	131,063	2008,521
1	0,000	131,063	2008,823
1	0,000	131,063	2008,923
1	0,000	131,063	2009,225
1	0,000	131,113	2009,427
1	0,000	131,113	2009,729
1	0,000	131,113	2009,830
1	0,000	131,113	2010,233
1	0,000	131,113	2010,434
1	0,000	131,163	2010,635
1	0,000	131,163	2010,837
1	0,000	131,163	2011,038
1	0,000	131,163	2011,340
1	0,000	131,163	2011,642
1	0,000	131,214	2011,743
1	0,000	131,214	2012,045
1	0,000	131,214	2012,146
1	0,000	131,214	2012,247
1	0,000	131,214	2012,750
1	0,000	131,264	2012,750
1	0,000	131,264	2012,650
1	0,000	131,264	2013,354
1	0,000	131,264	2013,455
1	0,000	131,264	2013,858
1	0,000	131,314	2014,059
1	0,000	131,314	2014,261
1	0,000	131,314	2014,462
1	0,000	131,314	2014,664
1	0,000	131,314	2014,664
1	0,000	131,364	2015,268
1	0,000	131,364	2015,369
1	0,000	131,364	2015,570
1	0,000	131,364	2015,771
1	0,000	131,364	2015,973
1	0,000	131,414	2016,174
1	0,000	131,414	2016,275
1	0,000	131,414	2016,275
1	0,000	131,414	2017,081
1	0,000	131,414	2017,181
1	0,000	131,464	2017,383
1	0,000	131,464	2017,685
1	0,000	131,464	2017,584
1	0,000	131,464	2018,088
1	0,000	131,464	2018,289
1	0,000	131,515	2018,491
1	0,000	131,515	2018,692
1	0,000	131,515	2018,994
1	0,000	131,515	2019,196
1	0,000	131,515	2019,498
1	0,000	131,565	2019,598
1	0,000	131,565	2019,901
1	0,000	131,565	2020,102
1	0,000	131,565	2020,404
1	0,000	131,565	2020,505
1	0,000	131,614	2020,706
1	0,000	131,614	2021,008
1	0,000	131,614	2021,310
1	0,000	131,614	2021,613
1	0,000	131,614	2021,814
1	0,000	131,664	2021,915
1	0,000	131,664	2022,217
1	0,000	131,664	2022,418
1	0,000	131,664	2022,620
1	0,000	131,664	2022,821
1	0,000	131,714	2023,022
1	0,000	131,714	2023,224
1	0,000	131,714	2023,425
1	0,000	131,714	2023,727
1	0,000	131,714	2024,030
1	0,000	131,765	2024,231
1	0,000	131,765	2024,533
1	0,000	131,765	2024,533
1	0,000	131,765	2024,936
1	0,000	131,765	2025,137
1	0,000	131,815	2025,339
1	0,000	131,815	2025,540
1	0,000	131,815	2025,742
1	0,000	131,815	2026,044
1	0,000	131,815	2025,742
1	0,000	131,865	2026,245
1	0,000	131,865	2026,547
1	0,000	131,865	2026,749
1	0,000	131,865	2026,950
1	0,000	131,865	2027,252
1	0,000	131,915	2027,454
1	0,000	131,915	2027,756
1	0,000	131,915	2027,957
1	0,000	131,915	2028,259
1	0,000	131,915	2028,360
1	0,000	131,965	2028,662
1	0,000	131,965	2028,864
1	0,000	131,965	2029,166
1	0,000	131,965	2029,367
1	0,000	131,965	2029,669
1	0,000	132,015	2029,871
1	0,000	132,015	2029,770
1	0,000	132,015	2030,273
1	0,000	132,015	2030,374
1	0,000	132,015	2030,576
1	0,000	132,066	2030,777
1	0,000	132,066	2031,079
1	0,000	132,066	2031,281
1	0,000	132,066	2031,482
1	0,000	132,066	2031,583
1	0,000	132,116	2031,885
1	0,000	132,116	2032,086
1	0,000	132,116	2032,187
1	0,000	132,116	2032,288
1	0,000	132,116	2032,892
1	0,000	132,166	2033,093
1	0,000	132,166	2033,194
1	0,000	132,166	2033,395
1	0,000	132,166	2033,496
1	0,000	132,166	2033,899
1	0,000	132,216	2034,000
1	0,000	132,216	2034,000
1	0,000	132,216	2034,302
1	0,000	132,216	2034,402
1	0,000	132,216	2035,007
1	0,000	132,266	2035,208
1	0,000	132,266	2035,309
1	0,000	132,266	2035,510
1	0,000	132,266	2035,712
1	0,000	132,266	2035,812
1	0,000	132,316	2036,215
1	0,000	132,316	2036,417
1	0,000	132,316	2036,618
1	0,000	132,316	2036,417
1	0,000	132,316	2037,122
1	0,000	132,366	2037,323
1	0,000	132,366	2037,424
1	0,000	132,366	2037,625
1	0,000	132,366	2037,927
1	0,000	132,366	2038,028
1	0,000	132,417	2038,531
1	0,000	132,417	2038,632
1	0,000	132,417	2038,934
1	0,000	132,417	2039,136
1	0,000	132,417	2039,337
1	0,000	132,467	2039,639
1	0,000	132,467	2039,941
1	0,000	132,467	2040,143
1	0,000	132,467	2040,445
1	0,000	132,467	2040,747
1	0,000	132,517	2041,049
1	0,000	132,517	2041,049
1	0,000	132,517	2041,452
1	0,000	132,517	2041,553
1	0,000	132,517	2041,855
1	0,000	132,567	2041,956
1	0,000	132,567	2042,157
1	0,000	132,567	2042,157
1	0,000	132,567	2042,560
1	0,000	132,567	2042,761
1	0,000	132,618	2042,963
1	0,000	132,618	2043,265
1	0,000	132,618	2043,567
1	0,000	132,618	2043,768
1	0,000	132,618	2043,970
1	0,000	132,667	2044,070
1	0,000	132,667	2044,373
1	0,000	132,667	2044,473
1	0,000	132,667	2044,775
1	0,000	132,667	2044,775
1	0,000	132,718	2045,178
1	0,000	132,718	2045,380
1	0,000	132,718	2045,682
1	0,000	132,718	2045,984
1	0,000	132,718	2046,085
1	0,000	132,768	2046,387
1	0,000	132,768	2046,689
1	0,000	132,768	2046,890
1	0,000	132,768	2047,092
1	0,000	132,768	2047,293
1	0,000	132,818	2047,495
1	0,000	132,818	2047,696
1	0,000	132,818	2048,099
1	0,000	132,818	2048,099
1	0,000	132,818	2048,502
1	0,000	132,868	2048,804
1	0,000	132,868	2049,106
1	0,000	132,868	2049,106
1	0,000	132,868	2049,207
1	0,000	132,868	2049,609
1	0,000	132,918	2049,811
1	0,000	132,918	2050,113
1	0,000	132,918	2050,314
1	0,000	132,918	2050,415
1	0,000	132,918	2050,616
1	0,000	132,968	2050,919
1	0,000	132,968	2051,120
1	0,000	132,968	2051,321
1	0,000	132,968	2051,523
1	0,000	132,968	2051,523
1	0,000	133,018	2052,026
1	0,000	133,018	2052,328
1	0,000	133,018	2052,530
1	0,000	133,018	2052,832
1	0,000	133,018	2053,033
1	0,000	133,068	2053,235
1	0,000	133,068	2053,436
1	0,000	133,068	2053,738
1	0,000	133,068	2053,940
1	0,000	133,068	2053,738
1	0,000	133,118	2054,343
1	0,000	133,118	2054,544
1	0,000	133,118	2054,745
1	0,000	133,118	2055,048
1	0,000	133,118	2055,148
1	0,000	133,168	2055,450
1	0,000	133,168	2055,753
1	0,000	133,168	2055,954
1	0,000	133,168	2056,155
1	0,000	133,168	2056,458
1	0,000	133,218	2056,760
1	0,000	133,218	2056,961
1	0,000	133,218	2057,162
1	0,000	133,218	2057,364
1	0,000	133,218	2057,666
1	0,000	133,268	2057,867
1	0,000	133,268	2058,170
1	0,000	133,268	2058,371
1	0,000	133,268	2058,572
1	0,000	133,268	2058,774
1	0,000	133,268	2058,975
1	0,000	133,319	2059,277
1	0,000	133,319	2059,378
1	0,000	133,319	2059,680
1	0,000	133,319	2059,882
1	0,000	133,319	2059,982
1	0,000	133,369	2060,184
1	0,000	133,369	2060,486
1	0,000	133,369	2060,587
1	0,000	133,369	2060,989
1	0,000	133,369	2061,191
1	0,000	133,419	2061,493
1	0,000	133,419	2061,694
1	0,000	133,419	2061,896
1	0,000	133,419	2062,198
1	0,000	133,469	2062,399
1	0,000	133,469	2062,601
1	0,000	133,469	2062,903
1	0,000	133,469	2063,104
1	0,000	133,469	2063,306
1	0,000	133,469	2063,608
1	0,000	133,519	2063,809
1	0,000	133,519	2064,011
1	0,000	133,519	2064,111
1	0,000	133,519	2064,514
1	0,000	133,569	2064,816
1	0,000	133,569	2065,018
1	0,000	133,569	2065,219
1	0,000	133,569	2065,421
1	0,000	133,569	2065,622
1	0,000	133,569	2065,823
1	0,000	133,619	2066,125
1	0,000	133,619	2066,327
1	0,000	133,619	2066,528
1	0,000	133,619	2066,730
1	0,000	133,619	2066,931
1	0,000	133,669	2067,133
1	0,000	133,669	2067,334
1	0,000	133,669	2067,636
1	0,000	133,669	2067,938
1	0,000	133,669	2068,140
1	0,000	133,720	2068,341
1	0,000	133,720	2068,643
1	0,000	133,720	2068,945
1	0,000	133,720	2069,046
1	0,000	133,720	2069,449
1	0,000	133,770	2069,550
1	0,000	133,770	2069,348
1	0,000	133,770	2069,952
1	0,000	133,770	2070,053
1	0,000	133,770	2070,456
1	0,000	133,821	2070,557
1	0,000	133,821	2070,859
1	0,000	133,821	2071,161
1	0,000	133,821	2071,362
1	0,000	133,821	2071,564
1	0,000	133,871	2019,397
1	0,000	133,871	2071,765
1	0,000	133,871	2072,067
1	0,000	133,871	2072,269
1	0,000	133,871	2072,571
1	0,000	133,871	2072,772
1	0,000	133,921	2073,074
1	0,000	133,921	2073,276
1	0,000	133,921	2073,477
1	0,000	133,921	2073,679
1	0,000	133,921	2073,880
1	0,000	133,971	2074,182
1	0,000	133,971	2074,384
1	0,000	133,971	2074,585
1	0,000	133,971	2074,786
1	0,000	133,971	2075,089
1	0,000	134,021	2075,391
1	0,000	134,021	2075,592
1	0,000	134,021	2075,793
1	0,000	134,021	2076,096
1	0,000	134,021	2076,398
1	0,000	134,071	2076,599
1	0,000	134,071	2076,801
1	0,000	134,071	2077,002
1	0,000	134,071	2077,203
1	0,000	134,071	2077,405
1	0,000	134,121	2077,707
1	0,000	134,121	2077,908
1	0,000	134,121	2078,210
1	0,000	134,121	2078,412
1	0,000	134,121	2078,613
1	0,000	134,171	2078,815
1	0,000	134,171	2079,016
1	0,000	134,171	2079,318
1	0,000	134,171	2079,520
1	0,000	134,171	2079,721
1	0,000	134,221	2080,124
1	0,000	134,221	2080,325
1	0,000	134,221	2080,527
1	0,000	134,221	2080,728
1	0,000	134,221	2081,030
1	0,000	134,272	2081,232
1	0,000	134,272	2081,433
1	0,000	134,272	2081,635
1	0,000	134,272	2081,836
1	0,000	134,272	2082,138
1	0,000	134,322	2082,339
1	0,000	134,322	2082,541
1	0,000	134,322	2082,742
1	0,000	134,322	2083,044
1	0,000	134,322	2083,347
1	0,000	134,372	2083,548
1	0,000	134,372	2083,749
1	0,000	134,372	2083,951
1	0,000	134,372	2084,253
1	0,000	134,372	2084,555
1	0,000	134,422	2084,756
1	0,000	134,422	2084,958
1	0,000	134,422	2085,260
1	0,000	134,422	2085,461
1	0,000	134,422	2085,663
1	0,000	134,472	2085,864
1	0,000	134,472	2086,166
1	0,000	134,472	2086,569
1	0,000	134,472	2086,771
1	0,000	134,472	2086,871
1	0,000	134,522	2087,073
1	0,000	134,522	2087,375
1	0,000	134,522	2087,576
1	0,000	134,522	2087,778
1	0,000	134,522	2088,080
1	0,000	134,573	2088,281
1	0,000	134,573	2088,583
1	0,000	134,573	2088,785
1	0,000	134,573	2088,986
1	0,000	134,573	2089,188
1	0,000	134,623	2089,389
1	0,000	134,623	2089,691
1	0,000	134,623	2089,993
1	0,000	134,623	2090,195
1	0,000	134,623	2090,497
1	0,000	134,673	2090,698
1	0,000	134,673	2090,900
1	0,000	134,673	2091,101
1	0,000	134,673	2091,403
1	0,000	134,673	2091,605
1	0,000	134,723	2091,605
1	0,000	134,723	2092,108
1	0,000	134,723	2092,310
1	0,000	134,723	2092,511
1	0,000	134,723	2092,712
1	0,000	134,774	2092,914
1	0,000	134,774	2093,216
1	0,000	134,774	2093,417
1	0,000	134,774	2093,719
1	0,000	134,774	2094,022
1	0,000	134,824	2094,223
1	0,000	134,824	2094,525
1	0,000	134,824	2094,727
1	0,000	134,824	2094,928
1	0,000	134,824	2095,029
1	0,000	134,875	2095,532
1	0,000	134,875	2095,633
1	0,000	134,875	2095,834
1	0,000	134,875	2096,036
1	0,000	134,875	2096,338
1	0,000	134,925	2096,539
1	0,000	134,925	2096,741
1	0,000	134,925	2097,043
1	0,000	134,925	2097,244
1	0,000	134,925	2097,546
1	0,000	134,975	2097,748
1	0,000	134,975	2098,050
1	0,000	134,975	2098,251
1	0,000	134,975	2098,453
1	0,000	134,975	2098,755
1	0,000	135,025	2098,856
1	0,000	135,025	2099,158
1	0,000	135,025	2099,359
1	0,000	135,025	2099,561
1	0,000	135,025	2099,863
1	0,000	135,075	2100,064
1	0,000	135,075	2100,366
1	0,000	135,075	2100,568
1	0,000	135,075	2100,769
1	0,000	135,075	2101,071
1	0,000	135,125	2101,172
1	0,000	135,125	2101,575
1	0,000	135,125	2101,776
1	0,000	135,125	2101,978
1	0,000	135,125	2102,179
1	0,000	135,176	2102,380
1	0,000	135,176	2102,682
1	0,000	135,176	2102,884
1	0,000	135,176	2103,186
1	0,000	135,176	2103,488
1	0,000	135,226	2103,690
1	0,000	135,226	2103,891
1	0,000	135,226	2104,092
1	0,000	135,226	2104,294
1	0,000	135,226	2104,495
1	0,000	135,276	2104,697
1	0,000	135,276	2104,999
1	0,000	135,276	2105,301
1	0,000	135,276	2105,502
1	0,000	135,276	2105,704
1	0,000	135,326	2106,006
1	0,000	135,326	2106,107
1	0,000	135,326	2106,409
1	0,000	135,326	2106,409
1	0,000	135,326	2107,013
1	0,000	135,376	2107,114
1	0,000	135,376	2107,416
1	0,000	135,376	2107,718
1	0,000	135,376	2107,919
1	0,000	135,376	2108,221
1	0,000	135,426	2108,423
1	0,000	135,426	2108,624
1	0,000	135,426	2108,926
1	0,000	135,426	2108,926
1	0,000	135,426	2109,128
1	0,000	135,476	2109,631
1	0,000	135,476	2109,833
1	0,000	135,476	2110,236
1	0,000	135,476	2110,336
1	0,000	135,476	2110,538
1	0,000	135,527	2110,638
1	0,000	135,527	2111,041
1	0,000	135,527	2111,243
1	0,000	135,527	2111,444
1	0,000	135,527	2111,746
1	0,000	135,577	2112,048
1	0,000	135,577	2112,250
1	0,000	135,577	2112,350
1	0,000	135,577	2112,753
1	0,000	135,577	2112,955
1	0,000	135,627	2113,156
1	0,000	135,627	2113,458
1	0,000	135,627	2113,559
1	0,000	135,627	2113,861
1	0,000	135,627	2114,062
1	0,000	135,677	2114,365
1	0,000	135,677	2114,667
1	0,000	135,677	2114,868
1	0,000	135,677	2115,070
1	0,000	135,677	2115,271
1	0,000	135,726	2115,573
1	0,000	135,726	2115,775
1	0,000	135,726	2115,976
1	0,000	135,726	2116,278
1	0,000	135,726	2116,479
1	0,000	135,777	2116,782
1	0,000	135,777	2117,084
1	0,000	135,777	2117,184
1	0,000	135,777	2117,487
1	0,000	135,777	2117,789
1	0,000	135,826	2118,091
1	0,000	135,826	2118,292
1	0,000	135,826	2118,494
1	0,000	135,826	2118,796
1	0,000	135,826	2119,098
1	0,000	135,876	2119,199
1	0,000	135,876	2119,400
1	0,000	135,876	2119,702
1	0,000	135,876	2119,803
1	0,000	135,876	2120,206
1	0,000	135,927	2120,407
1	0,000	135,927	2120,709
1	0,000	135,927	2120,911
1	0,000	135,927	2121,112
1	0,000	135,927	2121,414
1	0,000	135,977	2121,616
1	0,000	135,977	2121,918
1	0,000	135,977	2122,119
1	0,000	135,977	2122,321
1	0,000	135,977	2122,522
1	0,000	136,027	2122,824
1	0,000	136,027	2123,026
1	0,000	136,027	2123,227
1	0,000	136,027	2123,529
1	0,000	136,027	2123,831
1	0,000	136,076	2124,033
1	0,000	136,076	2124,335
1	0,000	136,076	2124,435
1	0,000	136,076	2124,738
1	0,000	136,076	2125,040
1	0,000	136,127	2125,241
1	0,000	136,127	2125,443
1	0,000	136,127	2125,644
1	0,000	136,127	2125,946
1	0,000	136,127	2126,147
1	0,000	136,176	2126,450
1	0,000	136,176	2126,651
1	0,000	136,176	2127,054
1	0,000	136,176	2127,255
1	0,000	136,176	2127,457
1	0,000	136,226	2127,658
1	0,000	136,226	2127,859
1	0,000	136,226	2128,061
1	0,000	136,226	2128,363
1	0,000	136,226	2128,564
1	0,000	136,276	2128,867
1	0,000	136,276	2129,068
1	0,000	136,276	2129,370
1	0,000	136,276	2129,572
1	0,000	136,276	2129,773
1	0,000	136,326	2130,075
1	0,000	136,326	2130,276
1	0,000	136,326	2130,579
1	0,000	136,326	2130,780
1	0,000	136,326	2131,082
1	0,000	136,377	2131,284
1	0,000	136,377	2131,485
1	0,000	136,377	2131,787
1	0,000	136,377	2131,989
1	0,000	136,377	2132,291
1	0,000	136,426	2132,492
1	0,000	136,426	2132,794
1	0,000	136,426	2132,996
1	0,000	136,426	2133,298
1	0,000	136,426	2133,499
1	0,000	136,476	2133,701
1	0,000	136,476	2134,103
1	0,000	136,476	2134,305
1	0,000	136,476	2134,506
1	0,000	136,476	2134,708
1	0,000	136,527	2135,010
1	0,000	136,527	2135,312
1	0,000	136,527	2135,614
1	0,000	136,527	2135,715
1	0,000	136,527	2136,017
1	0,000	136,576	2136,218
1	0,000	136,576	2136,520
1	0,000	136,576	2136,722
1	0,000	136,576	2136,923
1	0,000	136,576	2137,225
1	0,000	136,627	2137,427
1	0,000	136,627	2137,729
1	0,000	136,627	2137,930
1	0,000	136,627	2138,132
1	0,000	136,627	2138,434
1	0,000	136,676	2138,736
1	0,000	136,676	2138,837
1	0,000	136,676	2138,937
1	0,000	136,676	2139,441
1	0,000	136,676	2139,542
1	0,000	136,726	2139,944
1	0,000	136,726	2140,146
1	0,000	136,726	2140,347
1	0,000	136,726	2140,549
1	0,000	136,726	2140,851
1	0,000	136,777	2141,153
1	0,000	136,777	2141,354
1	0,000	136,777	2141,656
1	0,000	136,777	2141,858
1	0,000	136,777	2142,059
1	0,000	136,827	2142,261
1	0,000	136,827	2142,462
1	0,000	136,827	2142,764
1	0,000	136,827	2143,268
1	0,000	136,827	2143,268
1	0,000	136,876	2143,469
1	0,000	136,876	2143,872
1	0,000	136,876	2143,872
1	0,000	136,876	2144,275
1	0,000	136,876	2144,577
1	0,000	136,926	2144,980
1	0,000	136,926	2145,181
1	0,000	136,926	2145,282
1	0,000	136,926	2145,483
1	0,000	136,926	2145,786
1	0,000	136,977	2145,987
1	0,000	136,977	2146,289
1	0,000	136,977	2146,490
1	0,000	136,977	2146,692
1	0,000	136,977	2146,994
1	0,000	136,977	2147,195
1	0,000	137,027	2147,397
1	0,000	137,027	2147,699
1	0,000	137,027	2148,001
1	0,000	137,027	2148,303
1	0,000	137,077	2148,605
1	0,000	137,077	2148,907
1	0,000	137,077	2149,008
1	0,000	137,077	2149,210
1	0,000	137,077	2149,411
1	0,000	137,077	2149,713
1	0,000	137,127	2149,915
1	0,000	137,127	2150,116
1	0,000	137,127	2150,519
1	0,000	137,127	2150,720
1	0,000	137,127	2150,922
1	0,000	137,177	2151,224
1	0,000	137,177	2151,526
1	0,000	137,177	2151,526
1	0,000	137,177	2151,929
1	0,000	137,177	2152,231
1	0,000	137,227	2152,432
1	0,000	137,227	2152,634
1	0,000	137,227	2152,936
1	0,000	137,227	2153,036
1	0,000	137,227	2153,439
1	0,000	137,277	2153,641
1	0,000	137,277	2153,943
1	0,000	137,277	2154,144
1	0,000	137,277	2154,446
1	0,000	137,327	2154,648
1	0,000	137,327	2154,950
1	0,000	137,327	2155,151
1	0,000	137,327	2155,453
1	0,000	137,327	2155,756
1	0,000	137,327	2155,957
1	0,000	137,377	2156,259
1	0,000	137,377	2156,360
1	0,000	137,377	2156,662
1	0,000	137,377	2156,964
1	0,000	137,377	2157,166
1	0,000	137,427	2157,468
1	0,000	137,427	2157,669
1	0,000	137,427	2157,971
1	0,000	137,427	2158,173
1	0,000	137,427	2158,475
1	0,000	137,478	2158,676
1	0,000	137,478	2158,978
1	0,000	137,478	2159,180
1	0,000	137,478	2159,381
1	0,000	137,478	2159,683
1	0,000	137,528	2159,885
1	0,000	137,528	2160,187
1	0,000	137,528	2160,489
1	0,000	137,528	2160,690
1	0,000	137,528	2160,992
1	0,000	137,578	2161,194
1	0,000	137,578	2161,496
1	0,000	137,578	2161,697
1	0,000	137,578	2162,000
1	0,000	137,578	2162,201
1	0,000	137,628	2162,604
1	0,000	137,628	2162,805
1	0,000	137,628	2163,007
1	0,000	137,628	2163,208
1	0,000	137,628	2163,409
1	0,000	137,679	2163,611
1	0,000	137,679	2163,913
1	0,000	137,679	2164,114
1	0,000	137,679	2164,417
1	0,000	137,679	2164,618
1	0,000	137,729	2164,819
1	0,000	137,729	2165,121
1	0,000	137,729	2165,424
1	0,000	137,729	2165,625
1	0,000	137,729	2165,826
1	0,000	137,779	2166,129
1	0,000	137,779	2166,330
1	0,000	137,779	2166,632
1	0,000	137,779	2166,833
1	0,000	137,779	2167,136
1	0,000	137,829	2167,337
1	0,000	137,829	2167,639
1	0,000	137,829	2167,841
1	0,000	137,829	2168,042
1	0,000	137,829	2168,445
1	0,000	137,879	2168,546
1	0,000	137,879	2168,848
1	0,000	137,879	2169,150
1	0,000	137,879	2169,351
1	0,000	137,879	2169,653
1	0,000	137,929	2169,855
1	0,000	137,929	2170,056
1	0,000	137,929	2170,358
1	0,000	137,929	2170,660
1	0,000	137,929	2170,862
1	0,000	137,980	2170,963
1	0,000	137,980	2171,365
1	0,000	137,980	2171,466
1	0,000	137,980	2171,869
1	0,000	137,980	2172,070
1	0,000	138,030	2172,372
1	0,000	138,030	2172,675
1	0,000	138,030	2172,876
1	0,000	138,030	2173,077
1	0,000	138,030	2173,279
1	0,000	138,080	2173,581
1	0,000	138,080	2173,883
1	0,000	138,080	2173,984
1	0,000	138,080	2174,387
1	0,000	138,080	2174,588
1	0,000	138,130	2174,789
1	0,000	138,130	2175,092
1	0,000	138,130	2175,293
1	0,000	138,130	2175,494
1	0,000	138,130	2175,797
1	0,000	138,180	2175,998
1	0,000	138,180	2176,300
1	0,000	138,180	2176,602
1	0,000	138,180	2176,501
1	0,000	138,180	2177,106
1	0,000	138,230	2177,307
1	0,000	138,230	2177,609
1	0,000	138,230	2177,911
1	0,000	138,230	2177,911
1	0,000	138,230	2178,415
1	0,000	138,280	2178,616
1	0,000	138,280	2178,818
1	0,000	138,280	2179,019
1	0,000	138,280	2179,321
1	0,000	138,280	2179,724
1	0,000	138,330	2180,026
1	0,000	138,330	2180,228
1	0,000	138,330	2180,429
1	0,000	138,330	2180,630
1	0,000	138,330	2180,832
1	0,000	138,380	2181,134
1	0,000	138,380	2181,436
1	0,000	138,380	2181,638
1	0,000	138,380	2181,940
1	0,000	138,380	2182,040
1	0,000	138,430	2182,343
1	0,000	138,430	2182,645
1	0,000	138,430	2182,846
1	0,000	138,430	2183,148
1	0,000	138,430	2183,350
1	0,000	138,480	2183,752
1	0,000	138,480	2183,752
1	0,000	138,480	2184,155
1	0,000	138,480	2184,457
1	0,000	138,480	2184,659
1	0,000	138,531	2184,961
1	0,000	138,531	2185,162
1	0,000	138,531	2185,464
1	0,000	138,531	2185,666
1	0,000	138,531	2185,968
1	0,000	138,580	2186,169
1	0,000	138,580	2186,371
1	0,000	138,580	2186,673
1	0,000	138,580	2186,874
1	0,000	138,580	2187,277
1	0,000	138,630	2187,277
1	0,000	138,630	2187,781
1	0,000	138,630	2187,982
1	0,000	138,630	2188,184
1	0,000	138,630	2188,385
1	0,000	138,680	2188,687
1	0,000	138,680	2188,989
1	0,000	138,680	2189,191
1	0,000	138,680	2189,392
1	0,000	138,680	2189,694
1	0,000	138,731	2189,896
1	0,000	138,731	2190,298
1	0,000	138,731	2190,500
1	0,000	138,731	2190,701
1	0,000	138,731	2191,003
1	0,000	138,780	2191,205
1	0,000	138,780	2191,507
1	0,000	138,780	2191,708
1	0,000	138,780	2192,010
1	0,000	138,780	2192,212
1	0,000	138,831	2192,615
1	0,000	138,831	2192,816
1	0,000	138,831	2193,018
1	0,000	138,831	2193,320
1	0,000	138,831	2193,521
1	0,000	138,880	2193,723
1	0,000	138,880	2194,025
1	0,000	138,880	2194,327
1	0,000	138,880	2194,629
1	0,000	138,880	2194,830
1	0,000	138,930	2195,132
1	0,000	138,930	2195,334
1	0,000	138,930	2195,737
1	0,000	138,930	2195,837
1	0,000	138,930	2196,140
1	0,000	138,980	2196,341
1	0,000	138,980	2196,643
1	0,000	138,980	2196,844
1	0,000	138,980	2197,046
1	0,000	138,980	2197,348
1	0,000	139,031	2197,549
1	0,000	139,031	2197,852
1	0,000	139,031	2198,154
1	0,000	139,031	2198,355
1	0,000	139,031	2198,657
1	0,000	139,081	2198,758
1	0,000	139,081	2199,060
1	0,000	139,081	2199,261
1	0,000	139,081	2199,664
1	0,000	139,081	2199,866
1	0,000	139,132	2200,067
1	0,000	139,132	2200,269
1	0,000	139,132	2200,571
1	0,000	139,132	2200,873
1	0,000	139,132	2201,074
1	0,000	139,182	2201,376
1	0,000	139,182	2201,678
1	0,000	139,182	2201,880
1	0,000	139,182	2202,182
1	0,000	139,182	2202,383
1	0,000	139,233	2202,686
1	0,000	139,233	2202,887
1	0,000	139,233	2203,189
1	0,000	139,233	2203,592
1	0,000	139,233	2203,793
1	0,000	139,283	2204,095
1	0,000	139,283	2204,196
1	0,000	139,283	2204,498
1	0,000	139,283	2204,800
1	0,000	139,283	2205,002
1	0,000	139,333	2205,203
1	0,000	139,333	2205,505
1	0,000	139,333	2205,707
1	0,000	139,333	2205,908
1	0,000	139,333	2206,210
1	0,000	139,383	2206,512
1	0,000	139,383	2206,815
1	0,000	139,383	2207,016
1	0,000	139,383	2207,318
1	0,000	139,383	2207,520
1	0,000	139,433	2207,822
1	0,000	139,433	2208,023
1	0,000	139,433	2208,325
1	0,000	139,433	2208,627
1	0,000	139,433	2208,627
1	0,000	139,483	2209,030
1	0,000	139,483	2209,433
1	0,000	139,483	2209,634
1	0,000	139,483	2209,836
1	0,000	139,483	2210,138
1	0,000	139,534	2210,339
1	0,000	139,534	2210,440
1	0,000	139,534	2210,843
1	0,000	139,534	2211,145
1	0,000	139,534	2211,346
1	0,000	139,584	2211,749
1	0,000	139,584	2211,951
1	0,000	139,584	2212,152
1	0,000	139,584	2212,454
1	0,000	139,584	2212,656
1	0,000	139,634	2212,958
1	0,000	139,634	2213,260
1	0,000	139,634	2213,461
1	0,000	139,634	2213,763
1	0,000	139,634	2214,066
1	0,000	139,684	2214,368
1	0,000	139,684	2214,468
1	0,000	139,684	2214,771
1	0,000	139,684	2215,073
1	0,000	139,684	2215,274
1	0,000	139,734	2215,475
1	0,000	139,734	2215,778
1	0,000	139,734	2216,080
1	0,000	139,734	2216,281
1	0,000	139,734	2216,483
1	0,000	139,784	2216,785
1	0,000	139,784	2217,087
1	0,000	139,784	2217,389
1	0,000	139,784	2217,590
1	0,000	139,784	2217,892
1	0,000	139,834	2217,993
1	0,000	139,834	2218,396
1	0,000	139,834	2218,597
1	0,000	139,834	2218,799
1	0,000	139,834	2219,101
1	0,000	139,883	2219,302
1	0,000	139,883	2219,705
1	0,000	139,883	2219,907
1	0,000	139,883	2220,108
1	0,000	139,883	2220,309
1	0,000	139,926	2220,309
1	0,000	139,926	2220,712
1	0,000	139,926	2220,914
1	0,000	139,926	2221,014
1	0,000	139,926	2221,216
1	0,000	139,960	2221,317
1	0,000	139,960	2221,417
1	0,000	139,960	2221,518
1	0,000	139,960	2221,719
1	0,000	139,960	2221,820
1	0,000	139,983	2221,921
1	0,000	139,983	2222,021
1	0,000	139,983	2222,122
1	0,000	139,983	2222,223
1	0,000	139,983	2222,223
1	0,000	139,996	2222,324
1	0,000	139,996	2222,424
1	0,000	139,996	2222,424
1	0,000	139,996	2222,424
1	0,000	139,996	2222,324
1	0,000	140,000	2222,324
1	0,000	140,000	2222,324
1	0,000	140,000	2222,424
1	0,000	140,000	2222,424
1	0,000	140,000	2222,424
1	0,000	140,000	2222,424
