Col.n° Rot(deg) Lin(mm) CHR(um)
1	0,000	80,072	1328,641
1	0,000	80,115	1328,641
1	0,000	80,115	1328,741
1	0,000	80,115	1328,741
1	0,000	80,115	1328,741
1	0,000	80,115	1328,842
1	0,000	80,164	1328,842
1	0,000	80,164	1328,943
1	0,000	80,164	1328,943
1	0,000	80,164	1328,943
1	0,000	80,164	1329,044
1	0,000	80,215	1329,044
1	0,000	80,215	1329,144
1	0,000	80,215	1329,144
1	0,000	80,215	1329,245
1	0,000	80,215	1329,245
1	0,000	80,264	1329,245
1	0,000	80,264	1329,346
1	0,000	80,264	1329,346
1	0,000	80,264	1329,446
1	0,000	80,264	1329,547
1	0,000	80,315	1329,547
1	0,000	80,315	1329,547
1	0,000	80,315	1329,547
1	0,000	80,315	1329,648
1	0,000	80,315	1329,648
1	0,000	80,364	1329,648
1	0,000	80,364	1329,749
1	0,000	80,364	1329,749
1	0,000	80,364	1329,950
1	0,000	80,364	1329,849
1	0,000	80,414	1329,950
1	0,000	80,414	1329,849
1	0,000	80,414	1329,950
1	0,000	80,414	1330,051
1	0,000	80,414	1329,950
1	0,000	80,464	1330,051
1	0,000	80,464	1330,051
1	0,000	80,464	1330,252
1	0,000	80,464	1330,151
1	0,000	80,464	1330,252
1	0,000	80,514	1330,252
1	0,000	80,514	1330,252
1	0,000	80,514	1330,353
1	0,000	80,514	1330,353
1	0,000	80,514	1330,453
1	0,000	80,565	1330,453
1	0,000	80,565	1330,554
1	0,000	80,565	1330,554
1	0,000	80,565	1330,655
1	0,000	80,565	1330,655
1	0,000	80,615	1330,756
1	0,000	80,615	1330,856
1	0,000	80,615	1330,856
1	0,000	80,615	1331,058
1	0,000	80,615	1330,957
1	0,000	80,665	1330,957
1	0,000	80,665	1331,058
1	0,000	80,665	1331,058
1	0,000	80,665	1331,058
1	0,000	80,665	1330,957
1	0,000	80,714	1331,158
1	0,000	80,714	1331,058
1	0,000	80,714	1331,158
1	0,000	80,714	1331,259
1	0,000	80,714	1331,259
1	0,000	80,764	1331,561
1	0,000	80,764	1331,360
1	0,000	80,764	1331,461
1	0,000	80,764	1331,461
1	0,000	80,764	1331,461
1	0,000	80,814	1331,561
1	0,000	80,814	1331,763
1	0,000	80,814	1331,662
1	0,000	80,814	1331,662
1	0,000	80,814	1331,763
1	0,000	80,865	1331,863
1	0,000	80,865	1331,763
1	0,000	80,865	1331,964
1	0,000	80,865	1331,964
1	0,000	80,865	1331,964
1	0,000	80,916	1332,065
1	0,000	80,916	1332,065
1	0,000	80,916	1332,166
1	0,000	80,916	1332,266
1	0,000	80,916	1332,367
1	0,000	80,965	1332,367
1	0,000	80,965	1332,468
1	0,000	80,965	1332,367
1	0,000	80,965	1332,568
1	0,000	80,965	1332,568
1	0,000	81,015	1332,468
1	0,000	81,015	1332,669
1	0,000	81,015	1332,669
1	0,000	81,015	1332,669
1	0,000	81,015	1332,266
1	0,000	81,065	1332,669
1	0,000	81,065	1332,669
1	0,000	81,065	1332,568
1	0,000	81,065	1332,669
1	0,000	81,065	1332,770
1	0,000	81,115	1332,669
1	0,000	81,115	1332,971
1	0,000	81,115	1332,971
1	0,000	81,115	1332,971
1	0,000	81,115	1333,072
1	0,000	81,165	1333,072
1	0,000	81,165	1333,072
1	0,000	81,165	1333,173
1	0,000	81,165	1333,173
1	0,000	81,165	1333,173
1	0,000	81,215	1332,971
1	0,000	81,215	1333,374
1	0,000	81,215	1333,475
1	0,000	81,215	1333,374
1	0,000	81,215	1333,374
1	0,000	81,265	1333,575
1	0,000	81,265	1333,676
1	0,000	81,265	1333,575
1	0,000	81,265	1333,676
1	0,000	81,265	1333,777
1	0,000	81,315	1333,676
1	0,000	81,315	1333,777
1	0,000	81,315	1333,878
1	0,000	81,315	1333,878
1	0,000	81,315	1333,878
1	0,000	81,365	1334,079
1	0,000	81,365	1334,079
1	0,000	81,365	1333,978
1	0,000	81,365	1333,978
1	0,000	81,365	1334,180
1	0,000	81,415	1334,079
1	0,000	81,415	1334,280
1	0,000	81,415	1334,280
1	0,000	81,415	1334,280
1	0,000	81,415	1334,280
1	0,000	81,465	1334,482
1	0,000	81,465	1334,180
1	0,000	81,465	1334,583
1	0,000	81,465	1334,583
1	0,000	81,465	1334,583
1	0,000	81,465	1334,381
1	0,000	81,515	1334,583
1	0,000	81,515	1334,683
1	0,000	81,515	1334,683
1	0,000	81,515	1334,683
1	0,000	81,565	1334,784
1	0,000	81,565	1334,784
1	0,000	81,565	1334,885
1	0,000	81,565	1334,985
1	0,000	81,565	1334,985
1	0,000	81,615	1335,086
1	0,000	81,615	1335,086
1	0,000	81,615	1335,086
1	0,000	81,615	1335,187
1	0,000	81,615	1335,187
1	0,000	81,665	1335,287
1	0,000	81,665	1335,388
1	0,000	81,665	1335,489
1	0,000	81,665	1335,489
1	0,000	81,665	1335,489
1	0,000	81,665	1335,590
1	0,000	81,715	1335,590
1	0,000	81,715	1335,590
1	0,000	81,715	1335,489
1	0,000	81,715	1335,791
1	0,000	81,765	1335,892
1	0,000	81,765	1335,791
1	0,000	81,765	1335,690
1	0,000	81,765	1335,992
1	0,000	81,765	1335,892
1	0,000	81,815	1335,892
1	0,000	81,815	1335,992
1	0,000	81,815	1336,093
1	0,000	81,815	1336,093
1	0,000	81,815	1336,093
1	0,000	81,865	1336,194
1	0,000	81,865	1336,194
1	0,000	81,865	1336,295
1	0,000	81,865	1336,395
1	0,000	81,865	1336,395
1	0,000	81,915	1336,395
1	0,000	81,915	1336,395
1	0,000	81,915	1336,496
1	0,000	81,915	1336,395
1	0,000	81,915	1336,496
1	0,000	81,965	1336,597
1	0,000	81,965	1336,697
1	0,000	81,965	1336,697
1	0,000	81,965	1336,798
1	0,000	81,965	1336,798
1	0,000	82,015	1336,899
1	0,000	82,015	1336,899
1	0,000	82,015	1337,000
1	0,000	82,015	1337,000
1	0,000	82,015	1337,000
1	0,000	82,065	1337,000
1	0,000	82,065	1337,100
1	0,000	82,065	1337,201
1	0,000	82,065	1337,100
1	0,000	82,065	1337,201
1	0,000	82,115	1337,302
1	0,000	82,115	1337,302
1	0,000	82,115	1337,302
1	0,000	82,115	1337,402
1	0,000	82,115	1337,402
1	0,000	82,115	1337,503
1	0,000	82,165	1337,604
1	0,000	82,165	1337,604
1	0,000	82,165	1337,704
1	0,000	82,165	1337,704
1	0,000	82,215	1337,805
1	0,000	82,215	1337,805
1	0,000	82,215	1337,906
1	0,000	82,215	1338,007
1	0,000	82,215	1337,906
1	0,000	82,215	1338,107
1	0,000	82,265	1338,107
1	0,000	82,265	1337,704
1	0,000	82,265	1338,309
1	0,000	82,265	1338,208
1	0,000	82,265	1338,309
1	0,000	82,316	1338,309
1	0,000	82,316	1338,409
1	0,000	82,316	1338,409
1	0,000	82,316	1338,309
1	0,000	82,316	1338,510
1	0,000	82,365	1338,510
1	0,000	82,365	1338,611
1	0,000	82,365	1338,913
1	0,000	82,365	1338,812
1	0,000	82,415	1338,812
1	0,000	82,415	1338,712
1	0,000	82,415	1338,812
1	0,000	82,415	1338,913
1	0,000	82,415	1338,913
1	0,000	82,415	1339,014
1	0,000	82,465	1339,014
1	0,000	82,465	1339,114
1	0,000	82,465	1339,114
1	0,000	82,465	1339,114
1	0,000	82,465	1339,114
1	0,000	82,515	1339,215
1	0,000	82,515	1339,215
1	0,000	82,515	1339,316
1	0,000	82,515	1339,417
1	0,000	82,515	1339,417
1	0,000	82,565	1339,417
1	0,000	82,565	1339,517
1	0,000	82,565	1339,517
1	0,000	82,565	1339,618
1	0,000	82,565	1339,719
1	0,000	82,615	1339,719
1	0,000	82,615	1339,819
1	0,000	82,615	1339,920
1	0,000	82,615	1339,618
1	0,000	82,615	1340,021
1	0,000	82,665	1340,222
1	0,000	82,665	1340,121
1	0,000	82,665	1340,121
1	0,000	82,665	1340,121
1	0,000	82,665	1340,222
1	0,000	82,715	1340,222
1	0,000	82,715	1340,323
1	0,000	82,715	1340,323
1	0,000	82,715	1340,424
1	0,000	82,765	1340,424
1	0,000	82,765	1340,424
1	0,000	82,765	1340,524
1	0,000	82,765	1340,524
1	0,000	82,765	1340,424
1	0,000	82,765	1340,726
1	0,000	82,815	1340,826
1	0,000	82,815	1340,826
1	0,000	82,815	1340,826
1	0,000	82,815	1340,826
1	0,000	82,866	1340,927
1	0,000	82,866	1341,028
1	0,000	82,866	1341,028
1	0,000	82,866	1341,129
1	0,000	82,866	1341,330
1	0,000	82,866	1341,330
1	0,000	82,916	1341,330
1	0,000	82,916	1341,330
1	0,000	82,916	1341,431
1	0,000	82,916	1341,431
1	0,000	82,916	1341,531
1	0,000	82,966	1341,632
1	0,000	82,966	1341,531
1	0,000	82,966	1341,531
1	0,000	82,966	1341,733
1	0,000	82,966	1341,733
1	0,000	83,017	1341,733
1	0,000	83,017	1341,733
1	0,000	83,017	1341,833
1	0,000	83,017	1341,934
1	0,000	83,017	1341,934
1	0,000	83,067	1342,035
1	0,000	83,067	1342,136
1	0,000	83,067	1342,136
1	0,000	83,067	1342,136
1	0,000	83,067	1342,136
1	0,000	83,117	1342,035
1	0,000	83,117	1342,236
1	0,000	83,117	1342,337
1	0,000	83,117	1342,337
1	0,000	83,117	1342,438
1	0,000	83,168	1342,337
1	0,000	83,168	1342,438
1	0,000	83,168	1342,639
1	0,000	83,168	1342,740
1	0,000	83,168	1342,740
1	0,000	83,218	1342,841
1	0,000	83,218	1342,841
1	0,000	83,218	1342,941
1	0,000	83,218	1342,740
1	0,000	83,218	1343,042
1	0,000	83,269	1342,941
1	0,000	83,269	1343,143
1	0,000	83,269	1343,143
1	0,000	83,269	1343,143
1	0,000	83,269	1343,243
1	0,000	83,318	1343,344
1	0,000	83,318	1343,445
1	0,000	83,318	1343,143
1	0,000	83,318	1343,546
1	0,000	83,318	1343,445
1	0,000	83,369	1343,344
1	0,000	83,369	1343,445
1	0,000	83,369	1343,646
1	0,000	83,369	1343,646
1	0,000	83,369	1343,646
1	0,000	83,418	1343,747
1	0,000	83,418	1343,848
1	0,000	83,418	1343,848
1	0,000	83,418	1343,948
1	0,000	83,418	1344,049
1	0,000	83,469	1344,049
1	0,000	83,469	1344,150
1	0,000	83,469	1344,150
1	0,000	83,469	1344,250
1	0,000	83,469	1344,250
1	0,000	83,519	1344,250
1	0,000	83,519	1344,351
1	0,000	83,519	1344,452
1	0,000	83,519	1344,754
1	0,000	83,519	1344,754
1	0,000	83,569	1344,754
1	0,000	83,569	1344,653
1	0,000	83,569	1344,653
1	0,000	83,569	1344,754
1	0,000	83,569	1344,754
1	0,000	83,619	1344,855
1	0,000	83,619	1344,855
1	0,000	83,619	1344,955
1	0,000	83,619	1344,955
1	0,000	83,619	1345,056
1	0,000	83,669	1345,056
1	0,000	83,669	1345,157
1	0,000	83,669	1345,157
1	0,000	83,669	1345,258
1	0,000	83,669	1345,258
1	0,000	83,719	1345,258
1	0,000	83,719	1345,459
1	0,000	83,719	1345,459
1	0,000	83,719	1345,560
1	0,000	83,719	1345,560
1	0,000	83,769	1345,761
1	0,000	83,769	1345,660
1	0,000	83,769	1345,761
1	0,000	83,769	1345,761
1	0,000	83,769	1345,862
1	0,000	83,819	1345,963
1	0,000	83,819	1345,862
1	0,000	83,819	1345,862
1	0,000	83,819	1345,963
1	0,000	83,819	1346,164
1	0,000	83,869	1346,164
1	0,000	83,869	1346,164
1	0,000	83,869	1346,063
1	0,000	83,869	1346,164
1	0,000	83,869	1346,365
1	0,000	83,919	1346,466
1	0,000	83,919	1346,567
1	0,000	83,919	1346,667
1	0,000	83,919	1346,667
1	0,000	83,919	1346,466
1	0,000	83,970	1346,768
1	0,000	83,970	1346,768
1	0,000	83,970	1346,667
1	0,000	83,970	1346,869
1	0,000	83,970	1346,466
1	0,000	84,020	1346,970
1	0,000	84,020	1347,070
1	0,000	84,020	1347,171
1	0,000	84,020	1347,171
1	0,000	84,020	1347,272
1	0,000	84,070	1347,272
1	0,000	84,070	1347,372
1	0,000	84,070	1347,372
1	0,000	84,070	1347,473
1	0,000	84,070	1347,574
1	0,000	84,120	1347,574
1	0,000	84,120	1347,574
1	0,000	84,120	1347,675
1	0,000	84,120	1347,675
1	0,000	84,120	1347,775
1	0,000	84,171	1347,876
1	0,000	84,171	1347,876
1	0,000	84,171	1347,876
1	0,000	84,171	1347,977
1	0,000	84,171	1347,977
1	0,000	84,221	1348,178
1	0,000	84,221	1347,977
1	0,000	84,221	1348,178
1	0,000	84,221	1348,178
1	0,000	84,221	1348,380
1	0,000	84,270	1348,480
1	0,000	84,270	1348,480
1	0,000	84,270	1348,581
1	0,000	84,270	1348,682
1	0,000	84,270	1347,977
1	0,000	84,321	1348,682
1	0,000	84,321	1348,782
1	0,000	84,321	1348,782
1	0,000	84,321	1348,883
1	0,000	84,321	1348,883
1	0,000	84,371	1348,984
1	0,000	84,371	1349,084
1	0,000	84,371	1348,984
1	0,000	84,371	1349,084
1	0,000	84,371	1349,084
1	0,000	84,421	1349,286
1	0,000	84,421	1349,286
1	0,000	84,421	1349,286
1	0,000	84,421	1349,387
1	0,000	84,421	1349,487
1	0,000	84,471	1349,487
1	0,000	84,471	1349,487
1	0,000	84,471	1349,588
1	0,000	84,471	1349,588
1	0,000	84,471	1349,789
1	0,000	84,521	1349,689
1	0,000	84,521	1349,789
1	0,000	84,521	1349,890
1	0,000	84,521	1349,890
1	0,000	84,521	1349,991
1	0,000	84,572	1350,092
1	0,000	84,572	1350,092
1	0,000	84,572	1350,192
1	0,000	84,572	1350,192
1	0,000	84,572	1350,293
1	0,000	84,622	1350,293
1	0,000	84,622	1350,293
1	0,000	84,622	1350,394
1	0,000	84,622	1350,494
1	0,000	84,622	1350,696
1	0,000	84,672	1350,494
1	0,000	84,672	1350,897
1	0,000	84,672	1350,797
1	0,000	84,672	1350,797
1	0,000	84,672	1350,897
1	0,000	84,722	1350,897
1	0,000	84,722	1350,998
1	0,000	84,722	1350,897
1	0,000	84,722	1350,998
1	0,000	84,722	1351,099
1	0,000	84,772	1351,099
1	0,000	84,772	1351,199
1	0,000	84,772	1351,300
1	0,000	84,772	1351,401
1	0,000	84,772	1351,401
1	0,000	84,823	1351,401
1	0,000	84,823	1351,501
1	0,000	84,823	1351,602
1	0,000	84,823	1351,602
1	0,000	84,823	1351,703
1	0,000	84,872	1351,804
1	0,000	84,872	1351,804
1	0,000	84,872	1351,804
1	0,000	84,872	1352,005
1	0,000	84,872	1351,804
1	0,000	84,922	1352,005
1	0,000	84,922	1352,106
1	0,000	84,922	1352,206
1	0,000	84,922	1352,206
1	0,000	84,922	1352,307
1	0,000	84,973	1352,408
1	0,000	84,973	1352,408
1	0,000	84,973	1352,005
1	0,000	84,973	1352,609
1	0,000	84,973	1352,710
1	0,000	85,023	1352,710
1	0,000	85,023	1352,710
1	0,000	85,023	1352,710
1	0,000	85,023	1352,811
1	0,000	85,023	1352,911
1	0,000	85,073	1352,911
1	0,000	85,073	1353,012
1	0,000	85,073	1353,012
1	0,000	85,073	1353,113
1	0,000	85,073	1353,113
1	0,000	85,123	1353,113
1	0,000	85,123	1353,314
1	0,000	85,123	1353,314
1	0,000	85,123	1353,415
1	0,000	85,123	1353,314
1	0,000	85,173	1353,214
1	0,000	85,173	1353,616
1	0,000	85,173	1353,516
1	0,000	85,173	1353,717
1	0,000	85,173	1353,717
1	0,000	85,223	1353,717
1	0,000	85,223	1353,818
1	0,000	85,223	1353,918
1	0,000	85,223	1353,918
1	0,000	85,223	1354,019
1	0,000	85,273	1354,019
1	0,000	85,273	1354,221
1	0,000	85,273	1354,120
1	0,000	85,273	1354,221
1	0,000	85,273	1354,321
1	0,000	85,323	1354,422
1	0,000	85,323	1354,422
1	0,000	85,323	1354,523
1	0,000	85,323	1354,523
1	0,000	85,323	1354,623
1	0,000	85,373	1354,523
1	0,000	85,373	1354,724
1	0,000	85,373	1354,825
1	0,000	85,373	1354,926
1	0,000	85,373	1354,825
1	0,000	85,423	1355,026
1	0,000	85,423	1355,026
1	0,000	85,423	1355,026
1	0,000	85,423	1355,127
1	0,000	85,423	1355,228
1	0,000	85,473	1355,228
1	0,000	85,473	1355,328
1	0,000	85,473	1355,429
1	0,000	85,473	1355,429
1	0,000	85,473	1355,530
1	0,000	85,523	1355,630
1	0,000	85,523	1355,630
1	0,000	85,523	1355,731
1	0,000	85,523	1355,731
1	0,000	85,523	1355,731
1	0,000	85,573	1355,933
1	0,000	85,573	1355,933
1	0,000	85,573	1355,832
1	0,000	85,573	1356,134
1	0,000	85,573	1356,134
1	0,000	85,623	1356,134
1	0,000	85,623	1356,235
1	0,000	85,623	1356,335
1	0,000	85,623	1356,436
1	0,000	85,623	1356,436
1	0,000	85,673	1356,436
1	0,000	85,673	1356,537
1	0,000	85,673	1356,638
1	0,000	85,673	1356,638
1	0,000	85,673	1356,738
1	0,000	85,723	1356,738
1	0,000	85,723	1356,738
1	0,000	85,723	1356,839
1	0,000	85,723	1357,141
1	0,000	85,723	1357,040
1	0,000	85,723	1357,040
1	0,000	85,773	1357,141
1	0,000	85,773	1357,242
1	0,000	85,773	1357,343
1	0,000	85,773	1357,343
1	0,000	85,823	1357,544
1	0,000	85,823	1357,544
1	0,000	85,823	1357,544
1	0,000	85,823	1357,544
1	0,000	85,823	1357,645
1	0,000	85,873	1357,645
1	0,000	85,873	1357,745
1	0,000	85,873	1357,745
1	0,000	85,873	1357,846
1	0,000	85,873	1357,947
1	0,000	85,923	1357,947
1	0,000	85,923	1358,148
1	0,000	85,923	1358,148
1	0,000	85,923	1358,249
1	0,000	85,923	1358,249
1	0,000	85,973	1358,350
1	0,000	85,973	1358,350
1	0,000	85,973	1358,450
1	0,000	85,973	1358,551
1	0,000	85,973	1358,652
1	0,000	85,973	1358,752
1	0,000	86,024	1358,752
1	0,000	86,024	1358,752
1	0,000	86,024	1358,853
1	0,000	86,024	1358,853
1	0,000	86,073	1358,954
1	0,000	86,073	1358,954
1	0,000	86,073	1359,055
1	0,000	86,073	1359,256
1	0,000	86,073	1359,256
1	0,000	86,073	1359,256
1	0,000	86,123	1359,256
1	0,000	86,123	1359,357
1	0,000	86,123	1359,357
1	0,000	86,123	1359,457
1	0,000	86,173	1359,659
1	0,000	86,173	1359,659
1	0,000	86,173	1359,860
1	0,000	86,173	1359,860
1	0,000	86,173	1359,860
1	0,000	86,223	1359,860
1	0,000	86,223	1359,860
1	0,000	86,223	1360,062
1	0,000	86,223	1360,062
1	0,000	86,223	1360,062
1	0,000	86,223	1360,162
1	0,000	86,274	1360,263
1	0,000	86,274	1360,263
1	0,000	86,274	1360,364
1	0,000	86,274	1360,364
1	0,000	86,274	1360,464
1	0,000	86,324	1360,565
1	0,000	86,324	1360,565
1	0,000	86,324	1360,666
1	0,000	86,324	1360,666
1	0,000	86,324	1360,464
1	0,000	86,374	1361,069
1	0,000	86,374	1361,069
1	0,000	86,374	1361,069
1	0,000	86,374	1361,069
1	0,000	86,374	1361,169
1	0,000	86,424	1361,169
1	0,000	86,424	1361,270
1	0,000	86,424	1361,371
1	0,000	86,424	1361,472
1	0,000	86,424	1361,472
1	0,000	86,474	1361,572
1	0,000	86,474	1361,572
1	0,000	86,474	1361,673
1	0,000	86,474	1361,673
1	0,000	86,474	1361,774
1	0,000	86,524	1361,874
1	0,000	86,524	1361,774
1	0,000	86,524	1361,874
1	0,000	86,524	1361,975
1	0,000	86,574	1361,975
1	0,000	86,574	1362,177
1	0,000	86,574	1362,277
1	0,000	86,574	1362,277
1	0,000	86,574	1362,378
1	0,000	86,574	1362,479
1	0,000	86,624	1362,579
1	0,000	86,624	1361,774
1	0,000	86,624	1361,874
1	0,000	86,624	1362,277
1	0,000	86,624	1362,177
1	0,000	86,674	1362,680
1	0,000	86,674	1363,083
1	0,000	86,674	1362,982
1	0,000	86,674	1362,982
1	0,000	86,674	1363,083
1	0,000	86,724	1362,982
1	0,000	86,724	1363,184
1	0,000	86,724	1363,184
1	0,000	86,724	1363,385
1	0,000	86,724	1363,284
1	0,000	86,774	1363,385
1	0,000	86,774	1363,486
1	0,000	86,774	1363,486
1	0,000	86,774	1363,586
1	0,000	86,774	1363,687
1	0,000	86,824	1363,788
1	0,000	86,824	1363,788
1	0,000	86,824	1363,889
1	0,000	86,824	1363,989
1	0,000	86,824	1363,889
1	0,000	86,874	1363,989
1	0,000	86,874	1364,090
1	0,000	86,874	1364,090
1	0,000	86,874	1364,191
1	0,000	86,874	1364,291
1	0,000	86,924	1364,392
1	0,000	86,924	1364,392
1	0,000	86,924	1364,493
1	0,000	86,924	1364,493
1	0,000	86,924	1364,594
1	0,000	86,975	1364,694
1	0,000	86,975	1364,694
1	0,000	86,975	1364,795
1	0,000	86,975	1364,795
1	0,000	86,975	1364,996
1	0,000	87,025	1364,996
1	0,000	87,025	1365,198
1	0,000	87,025	1365,097
1	0,000	87,025	1365,198
1	0,000	87,025	1365,198
1	0,000	87,075	1365,298
1	0,000	87,075	1365,399
1	0,000	87,075	1365,399
1	0,000	87,075	1365,399
1	0,000	87,075	1365,601
1	0,000	87,125	1365,601
1	0,000	87,125	1365,802
1	0,000	87,125	1365,701
1	0,000	87,125	1365,802
1	0,000	87,125	1365,903
1	0,000	87,176	1366,003
1	0,000	87,176	1365,701
1	0,000	87,176	1366,205
1	0,000	87,176	1366,205
1	0,000	87,176	1366,306
1	0,000	87,226	1366,306
1	0,000	87,226	1366,406
1	0,000	87,226	1366,608
1	0,000	87,226	1366,608
1	0,000	87,226	1366,507
1	0,000	87,276	1366,708
1	0,000	87,276	1366,708
1	0,000	87,276	1366,809
1	0,000	87,276	1366,809
1	0,000	87,276	1366,910
1	0,000	87,326	1366,910
1	0,000	87,326	1367,010
1	0,000	87,326	1367,111
1	0,000	87,326	1367,111
1	0,000	87,326	1367,111
1	0,000	87,376	1367,313
1	0,000	87,376	1367,313
1	0,000	87,376	1367,413
1	0,000	87,376	1367,514
1	0,000	87,376	1367,615
1	0,000	87,426	1367,715
1	0,000	87,426	1367,715
1	0,000	87,426	1367,816
1	0,000	87,426	1367,615
1	0,000	87,426	1367,917
1	0,000	87,477	1367,816
1	0,000	87,477	1368,018
1	0,000	87,477	1368,118
1	0,000	87,477	1368,018
1	0,000	87,477	1368,219
1	0,000	87,527	1368,420
1	0,000	87,527	1368,420
1	0,000	87,527	1368,219
1	0,000	87,527	1368,521
1	0,000	87,527	1368,622
1	0,000	87,578	1368,622
1	0,000	87,578	1368,622
1	0,000	87,578	1368,622
1	0,000	87,578	1368,823
1	0,000	87,578	1368,823
1	0,000	87,629	1368,924
1	0,000	87,629	1369,025
1	0,000	87,629	1369,025
1	0,000	87,629	1369,125
1	0,000	87,629	1369,125
1	0,000	87,679	1369,427
1	0,000	87,679	1369,327
1	0,000	87,679	1369,427
1	0,000	87,679	1369,427
1	0,000	87,679	1369,629
1	0,000	87,728	1369,629
1	0,000	87,728	1369,629
1	0,000	87,728	1369,730
1	0,000	87,728	1369,730
1	0,000	87,728	1369,931
1	0,000	87,779	1369,931
1	0,000	87,779	1370,132
1	0,000	87,779	1370,032
1	0,000	87,779	1370,032
1	0,000	87,779	1370,233
1	0,000	87,829	1370,435
1	0,000	87,829	1370,334
1	0,000	87,829	1370,334
1	0,000	87,829	1370,535
1	0,000	87,829	1370,535
1	0,000	87,879	1370,636
1	0,000	87,879	1370,636
1	0,000	87,879	1370,737
1	0,000	87,879	1370,837
1	0,000	87,879	1370,837
1	0,000	87,929	1370,938
1	0,000	87,929	1371,039
1	0,000	87,929	1371,039
1	0,000	87,929	1371,140
1	0,000	87,929	1371,039
1	0,000	87,979	1371,140
1	0,000	87,979	1371,039
1	0,000	87,979	1371,341
1	0,000	87,979	1371,442
1	0,000	87,979	1371,542
1	0,000	88,030	1371,542
1	0,000	88,030	1371,643
1	0,000	88,030	1371,744
1	0,000	88,030	1371,844
1	0,000	88,030	1371,844
1	0,000	88,080	1371,945
1	0,000	88,080	1372,046
1	0,000	88,080	1372,147
1	0,000	88,080	2019,397
1	0,000	88,080	1372,147
1	0,000	88,080	1372,247
1	0,000	88,130	1372,348
1	0,000	88,130	1372,348
1	0,000	88,130	1372,449
1	0,000	88,130	1372,549
1	0,000	88,130	1372,549
1	0,000	88,180	1372,650
1	0,000	88,180	1372,650
1	0,000	88,180	1372,751
1	0,000	88,180	1372,852
1	0,000	88,180	1372,852
1	0,000	88,231	1372,952
1	0,000	88,231	1373,053
1	0,000	88,231	1373,053
1	0,000	88,231	1373,254
1	0,000	88,231	1373,254
1	0,000	88,280	1373,355
1	0,000	88,280	1373,456
1	0,000	88,280	1373,456
1	0,000	88,280	1373,557
1	0,000	88,280	1373,657
1	0,000	88,330	1373,657
1	0,000	88,330	1373,758
1	0,000	88,330	1373,859
1	0,000	88,330	1373,959
1	0,000	88,330	1374,060
1	0,000	88,380	1373,959
1	0,000	88,380	1374,261
1	0,000	88,380	1374,261
1	0,000	88,380	1374,060
1	0,000	88,380	1374,463
1	0,000	88,430	1374,463
1	0,000	88,430	1374,463
1	0,000	88,430	1374,564
1	0,000	88,430	1374,664
1	0,000	88,430	1374,564
1	0,000	88,480	1374,866
1	0,000	88,480	1374,866
1	0,000	88,480	1374,866
1	0,000	88,480	1374,866
1	0,000	88,480	1375,168
1	0,000	88,530	1375,168
1	0,000	88,530	1375,168
1	0,000	88,530	1375,168
1	0,000	88,530	1375,269
1	0,000	88,530	1375,369
1	0,000	88,580	1375,470
1	0,000	88,580	1375,571
1	0,000	88,580	1375,571
1	0,000	88,580	1375,571
1	0,000	88,580	1375,873
1	0,000	88,630	1375,772
1	0,000	88,630	1375,873
1	0,000	88,630	1375,974
1	0,000	88,630	1376,074
1	0,000	88,630	1376,074
1	0,000	88,680	1376,074
1	0,000	88,680	1376,175
1	0,000	88,680	1376,074
1	0,000	88,680	1376,276
1	0,000	88,680	1376,376
1	0,000	88,730	1376,477
1	0,000	88,730	1376,578
1	0,000	88,730	1376,678
1	0,000	88,730	1376,678
1	0,000	88,730	1376,779
1	0,000	88,780	1376,779
1	0,000	88,780	1376,880
1	0,000	88,780	1376,880
1	0,000	88,780	1376,981
1	0,000	88,780	1377,182
1	0,000	88,830	1377,182
1	0,000	88,830	1377,182
1	0,000	88,830	1377,283
1	0,000	88,830	1377,383
1	0,000	88,830	1377,383
1	0,000	88,880	1377,383
1	0,000	88,880	1377,585
1	0,000	88,880	1377,686
1	0,000	88,880	1377,686
1	0,000	88,880	1377,786
1	0,000	88,930	1377,786
1	0,000	88,930	1377,887
1	0,000	88,930	1377,988
1	0,000	88,930	1378,088
1	0,000	88,930	1378,189
1	0,000	88,980	1378,290
1	0,000	88,980	1378,290
1	0,000	88,980	1378,491
1	0,000	88,980	1378,491
1	0,000	88,980	1378,592
1	0,000	89,030	1378,592
1	0,000	89,030	1378,793
1	0,000	89,030	1378,793
1	0,000	89,030	1378,894
1	0,000	89,030	1379,095
1	0,000	89,080	1379,095
1	0,000	89,080	1379,095
1	0,000	89,080	1379,095
1	0,000	89,080	1379,196
1	0,000	89,080	1379,297
1	0,000	89,131	1379,297
1	0,000	89,131	1379,398
1	0,000	89,131	1379,498
1	0,000	89,131	1379,498
1	0,000	89,131	1379,599
1	0,000	89,180	1379,700
1	0,000	89,180	1379,800
1	0,000	89,180	1379,901
1	0,000	89,180	1379,901
1	0,000	89,180	1380,002
1	0,000	89,230	1380,203
1	0,000	89,230	1380,103
1	0,000	89,230	1380,203
1	0,000	89,230	1380,304
1	0,000	89,230	1380,505
1	0,000	89,280	1380,505
1	0,000	89,280	1380,505
1	0,000	89,280	1380,606
1	0,000	89,280	1380,606
1	0,000	89,280	1380,807
1	0,000	89,330	1380,807
1	0,000	89,330	1380,908
1	0,000	89,330	1381,009
1	0,000	89,330	1381,009
1	0,000	89,330	1381,110
1	0,000	89,381	1381,210
1	0,000	89,381	1381,311
1	0,000	89,381	1381,412
1	0,000	89,381	1381,613
1	0,000	89,381	1381,412
1	0,000	89,431	1381,512
1	0,000	89,431	1381,110
1	0,000	89,431	1381,714
1	0,000	89,431	1381,815
1	0,000	89,431	1381,915
1	0,000	89,481	1381,915
1	0,000	89,481	1382,016
1	0,000	89,481	1382,016
1	0,000	89,481	1382,117
1	0,000	89,481	1382,217
1	0,000	89,530	1382,520
1	0,000	89,530	1382,318
1	0,000	89,530	1382,419
1	0,000	89,530	1382,520
1	0,000	89,530	1382,520
1	0,000	89,530	1382,620
1	0,000	89,581	1382,721
1	0,000	89,581	1382,822
1	0,000	89,581	1383,023
1	0,000	89,581	1382,922
1	0,000	89,631	1383,023
1	0,000	89,631	1383,124
1	0,000	89,631	1383,224
1	0,000	89,631	1383,224
1	0,000	89,631	1383,325
1	0,000	89,631	1383,325
1	0,000	89,681	1383,325
1	0,000	89,681	1383,527
1	0,000	89,681	1383,627
1	0,000	89,681	1383,728
1	0,000	89,681	1383,829
1	0,000	89,731	1384,030
1	0,000	89,731	1383,929
1	0,000	89,731	1383,929
1	0,000	89,731	1384,131
1	0,000	89,781	1384,232
1	0,000	89,781	1384,332
1	0,000	89,781	1384,332
1	0,000	89,781	1384,433
1	0,000	89,781	1384,433
1	0,000	89,781	1384,433
1	0,000	89,831	1384,735
1	0,000	89,831	1384,836
1	0,000	89,831	1384,735
1	0,000	89,831	1384,836
1	0,000	89,881	1384,937
1	0,000	89,881	1385,037
1	0,000	89,881	1385,138
1	0,000	89,881	1385,239
1	0,000	89,881	1385,239
1	0,000	89,881	1385,339
1	0,000	89,932	1385,339
1	0,000	89,932	1385,440
1	0,000	89,932	1385,541
1	0,000	89,932	1385,541
1	0,000	89,932	1385,339
1	0,000	89,982	1385,742
1	0,000	89,982	1385,843
1	0,000	89,982	1385,944
1	0,000	89,982	1385,944
1	0,000	90,032	1386,145
1	0,000	90,032	1386,145
1	0,000	90,032	1386,246
1	0,000	90,032	1386,346
1	0,000	90,032	1386,346
1	0,000	90,032	1386,447
1	0,000	90,082	1386,649
1	0,000	90,082	1386,548
1	0,000	90,082	1386,749
1	0,000	90,082	1386,749
1	0,000	90,082	1386,850
1	0,000	90,132	1386,850
1	0,000	90,132	1387,051
1	0,000	90,132	1387,152
1	0,000	90,132	1387,253
1	0,000	90,132	1387,253
1	0,000	90,182	1387,253
1	0,000	90,182	1387,454
1	0,000	90,182	1387,454
1	0,000	90,182	1387,656
1	0,000	90,182	1387,555
1	0,000	90,232	1387,857
1	0,000	90,232	1387,857
1	0,000	90,232	1387,857
1	0,000	90,232	1388,058
1	0,000	90,232	1388,058
1	0,000	90,283	1388,159
1	0,000	90,283	1388,159
1	0,000	90,283	1388,260
1	0,000	90,283	1388,361
1	0,000	90,283	1388,361
1	0,000	90,334	1388,361
1	0,000	90,334	1388,562
1	0,000	90,334	1388,663
1	0,000	90,334	1388,763
1	0,000	90,334	1388,864
1	0,000	90,383	1388,864
1	0,000	90,383	1388,965
1	0,000	90,383	1389,066
1	0,000	90,383	1389,066
1	0,000	90,383	1389,166
1	0,000	90,433	1389,267
1	0,000	90,433	1389,368
1	0,000	90,433	1389,468
1	0,000	90,433	1389,468
1	0,000	90,433	1389,569
1	0,000	90,484	1389,670
1	0,000	90,484	1389,771
1	0,000	90,484	1389,871
1	0,000	90,484	1389,871
1	0,000	90,484	1389,972
1	0,000	90,534	1390,073
1	0,000	90,534	1390,274
1	0,000	90,534	1390,274
1	0,000	90,534	1390,274
1	0,000	90,534	1390,375
1	0,000	90,584	1390,475
1	0,000	90,584	1390,475
1	0,000	90,584	1390,475
1	0,000	90,584	1390,677
1	0,000	90,584	1390,778
1	0,000	90,634	1390,878
1	0,000	90,634	1390,878
1	0,000	90,634	1390,979
1	0,000	90,634	1391,080
1	0,000	90,634	1391,180
1	0,000	90,684	1391,180
1	0,000	90,684	1391,281
1	0,000	90,684	1391,382
1	0,000	90,684	1391,382
1	0,000	90,684	1391,483
1	0,000	90,735	1391,583
1	0,000	90,735	1391,583
1	0,000	90,735	1391,785
1	0,000	90,735	1391,885
1	0,000	90,735	1391,885
1	0,000	90,785	1391,986
1	0,000	90,785	1392,087
1	0,000	90,785	1392,087
1	0,000	90,785	1392,187
1	0,000	90,785	1392,288
1	0,000	90,835	1392,389
1	0,000	90,835	1392,490
1	0,000	90,835	1392,590
1	0,000	90,835	1392,691
1	0,000	90,835	1392,691
1	0,000	90,885	1392,792
1	0,000	90,885	1392,792
1	0,000	90,885	1392,993
1	0,000	90,885	1393,094
1	0,000	90,885	1393,094
1	0,000	90,936	1393,195
1	0,000	90,936	1393,295
1	0,000	90,936	1393,295
1	0,000	90,936	1393,396
1	0,000	90,936	1393,497
1	0,000	90,985	1393,597
1	0,000	90,985	1393,597
1	0,000	90,985	1393,799
1	0,000	90,985	1393,799
1	0,000	90,985	1393,900
1	0,000	91,035	1394,000
1	0,000	91,035	1394,101
1	0,000	91,035	1394,101
1	0,000	91,035	1394,302
1	0,000	91,035	1394,403
1	0,000	91,085	1394,504
1	0,000	91,085	1394,604
1	0,000	91,085	1394,604
1	0,000	91,085	1394,705
1	0,000	91,085	1394,806
1	0,000	91,135	1394,806
1	0,000	91,135	1394,907
1	0,000	91,135	1394,907
1	0,000	91,135	1395,108
1	0,000	91,135	1395,209
1	0,000	91,186	1395,209
1	0,000	91,186	1395,309
1	0,000	91,186	1395,410
1	0,000	91,186	1395,511
1	0,000	91,186	1395,511
1	0,000	91,235	1395,612
1	0,000	91,235	1395,612
1	0,000	91,235	1395,511
1	0,000	91,235	1395,813
1	0,000	91,235	1395,914
1	0,000	91,285	1395,813
1	0,000	91,285	1396,115
1	0,000	91,285	1396,115
1	0,000	91,285	1396,216
1	0,000	91,285	1396,216
1	0,000	91,335	1396,417
1	0,000	91,335	1396,417
1	0,000	91,335	1396,518
1	0,000	91,335	1396,719
1	0,000	91,335	1396,820
1	0,000	91,385	1396,820
1	0,000	91,385	1396,921
1	0,000	91,385	1396,921
1	0,000	91,385	1397,021
1	0,000	91,385	1397,122
1	0,000	91,435	1397,223
1	0,000	91,435	1397,223
1	0,000	91,435	1397,424
1	0,000	91,435	1397,525
1	0,000	91,435	1397,626
1	0,000	91,485	1397,626
1	0,000	91,485	1397,726
1	0,000	91,485	1397,827
1	0,000	91,485	1397,928
1	0,000	91,485	1398,029
1	0,000	91,536	1398,029
1	0,000	91,536	1398,129
1	0,000	91,536	1398,230
1	0,000	91,536	1398,431
1	0,000	91,536	1398,431
1	0,000	91,586	1398,431
1	0,000	91,586	1398,532
1	0,000	91,586	1398,633
1	0,000	91,586	1398,734
1	0,000	91,586	1398,834
1	0,000	91,636	1398,431
1	0,000	91,636	1399,036
1	0,000	91,636	1399,036
1	0,000	91,636	1399,136
1	0,000	91,636	1399,338
1	0,000	91,686	1399,438
1	0,000	91,686	1399,338
1	0,000	91,686	1399,438
1	0,000	91,686	1399,539
1	0,000	91,686	1399,539
1	0,000	91,736	1399,640
1	0,000	91,736	1399,741
1	0,000	91,736	1399,841
1	0,000	91,736	1399,942
1	0,000	91,736	1399,942
1	0,000	91,786	1400,043
1	0,000	91,786	1400,143
1	0,000	91,786	1400,345
1	0,000	91,786	1400,345
1	0,000	91,786	1400,345
1	0,000	91,837	1400,446
1	0,000	91,837	1400,647
1	0,000	91,837	1400,647
1	0,000	91,837	1400,647
1	0,000	91,837	1400,748
1	0,000	91,887	1400,949
1	0,000	91,887	1400,949
1	0,000	91,887	1401,050
1	0,000	91,887	1401,050
1	0,000	91,887	1401,151
1	0,000	91,937	1401,251
1	0,000	91,937	1401,352
1	0,000	91,937	1401,352
1	0,000	91,937	1401,553
1	0,000	91,937	1401,352
1	0,000	91,987	1401,855
1	0,000	91,987	1401,352
1	0,000	91,987	1401,956
1	0,000	91,987	1401,956
1	0,000	91,987	1402,158
1	0,000	92,037	1402,258
1	0,000	92,037	1402,258
1	0,000	92,037	1402,258
1	0,000	92,037	1402,460
1	0,000	92,037	1401,956
1	0,000	92,087	1402,560
1	0,000	92,087	1402,661
1	0,000	92,087	1402,661
1	0,000	92,087	1402,863
1	0,000	92,087	1402,863
1	0,000	92,138	1402,963
1	0,000	92,138	1403,064
1	0,000	92,138	1403,064
1	0,000	92,138	1403,265
1	0,000	92,138	1403,366
1	0,000	92,187	1403,366
1	0,000	92,187	1403,568
1	0,000	92,187	1403,568
1	0,000	92,187	1403,769
1	0,000	92,187	1403,769
1	0,000	92,237	1403,870
1	0,000	92,237	1403,870
1	0,000	92,237	1404,071
1	0,000	92,237	1404,172
1	0,000	92,237	1404,172
1	0,000	92,287	1404,373
1	0,000	92,287	1404,172
1	0,000	92,287	1404,474
1	0,000	92,287	1404,575
1	0,000	92,287	1404,575
1	0,000	92,337	1404,675
1	0,000	92,337	1404,776
1	0,000	92,337	1404,877
1	0,000	92,337	1404,977
1	0,000	92,337	1404,977
1	0,000	92,387	1405,078
1	0,000	92,387	1405,280
1	0,000	92,387	1405,280
1	0,000	92,387	1405,380
1	0,000	92,387	1405,582
1	0,000	92,437	1405,481
1	0,000	92,437	1405,682
1	0,000	92,437	1405,682
1	0,000	92,437	1405,783
1	0,000	92,437	1405,884
1	0,000	92,487	1405,884
1	0,000	92,487	1405,984
1	0,000	92,487	1406,085
1	0,000	92,487	1406,186
1	0,000	92,487	1406,387
1	0,000	92,537	1406,488
1	0,000	92,537	1406,488
1	0,000	92,537	1406,488
1	0,000	92,537	1406,589
1	0,000	92,537	1406,689
1	0,000	92,587	1406,488
1	0,000	92,587	1406,891
1	0,000	92,587	1406,992
1	0,000	92,587	1407,193
1	0,000	92,587	1407,092
1	0,000	92,637	1407,092
1	0,000	92,637	1407,394
1	0,000	92,637	1407,394
1	0,000	92,637	1407,596
1	0,000	92,637	1407,495
1	0,000	92,687	1407,596
1	0,000	92,687	1407,495
1	0,000	92,687	1407,898
1	0,000	92,687	1407,898
1	0,000	92,687	1407,898
1	0,000	92,738	1407,999
1	0,000	92,738	1408,301
1	0,000	92,738	1408,200
1	0,000	92,738	1408,301
1	0,000	92,738	1408,301
1	0,000	92,788	1408,603
1	0,000	92,788	1408,603
1	0,000	92,788	1408,603
1	0,000	92,788	1408,603
1	0,000	92,788	1408,804
1	0,000	92,838	1408,905
1	0,000	92,838	1409,006
1	0,000	92,838	1409,006
1	0,000	92,838	1409,106
1	0,000	92,838	1409,207
1	0,000	92,888	1409,308
1	0,000	92,888	1409,409
1	0,000	92,888	1409,409
1	0,000	92,888	1409,610
1	0,000	92,888	1409,610
1	0,000	92,938	1409,811
1	0,000	92,938	1409,912
1	0,000	92,938	1409,711
1	0,000	92,938	1410,013
1	0,000	92,938	1410,114
1	0,000	92,987	1410,214
1	0,000	92,987	1410,315
1	0,000	92,987	1410,315
1	0,000	92,987	1410,416
1	0,000	92,987	1410,416
1	0,000	93,038	1410,516
1	0,000	93,038	1410,617
1	0,000	93,038	1410,718
1	0,000	93,038	1410,818
1	0,000	93,038	1410,818
1	0,000	93,088	1410,919
1	0,000	93,088	1411,121
1	0,000	93,088	1411,121
1	0,000	93,088	1411,121
1	0,000	93,088	1411,322
1	0,000	93,138	1411,423
1	0,000	93,138	1411,523
1	0,000	93,138	1411,624
1	0,000	93,138	1411,725
1	0,000	93,138	1411,826
1	0,000	93,188	1411,826
1	0,000	93,188	1411,926
1	0,000	93,188	1412,027
1	0,000	93,188	1412,128
1	0,000	93,188	1412,128
1	0,000	93,238	1412,329
1	0,000	93,238	1412,430
1	0,000	93,238	1412,531
1	0,000	93,238	1412,631
1	0,000	93,238	1412,329
1	0,000	93,288	1412,732
1	0,000	93,288	1412,833
1	0,000	93,288	1412,933
1	0,000	93,288	1413,034
1	0,000	93,288	1413,135
1	0,000	93,337	1413,235
1	0,000	93,337	1413,336
1	0,000	93,337	1413,437
1	0,000	93,337	1413,437
1	0,000	93,337	1413,538
1	0,000	93,388	1413,638
1	0,000	93,388	1413,739
1	0,000	93,388	1413,840
1	0,000	93,388	1413,840
1	0,000	93,388	1414,041
1	0,000	93,438	1414,041
1	0,000	93,438	1414,142
1	0,000	93,438	1414,243
1	0,000	93,438	1414,343
1	0,000	93,438	1414,444
1	0,000	93,488	1414,444
1	0,000	93,488	1414,545
1	0,000	93,488	1414,645
1	0,000	93,488	1414,746
1	0,000	93,488	1414,948
1	0,000	93,539	1414,948
1	0,000	93,539	1415,149
1	0,000	93,539	1415,149
1	0,000	93,539	1415,149
1	0,000	93,539	1415,250
1	0,000	93,589	1415,451
1	0,000	93,589	1415,552
1	0,000	93,589	1415,652
1	0,000	93,589	1415,652
1	0,000	93,589	1415,652
1	0,000	93,639	1415,854
1	0,000	93,639	1415,955
1	0,000	93,639	1416,055
1	0,000	93,639	1416,055
1	0,000	93,639	1416,156
1	0,000	93,689	1416,257
1	0,000	93,689	1416,357
1	0,000	93,689	1416,458
1	0,000	93,689	1416,559
1	0,000	93,689	1416,660
1	0,000	93,739	1416,760
1	0,000	93,739	1416,760
1	0,000	93,739	1416,861
1	0,000	93,739	1417,062
1	0,000	93,739	1417,062
1	0,000	93,789	1417,163
1	0,000	93,789	1417,163
1	0,000	93,789	1417,365
1	0,000	93,789	1417,566
1	0,000	93,789	1417,566
1	0,000	93,839	1417,566
1	0,000	93,839	1417,667
1	0,000	93,839	1417,767
1	0,000	93,839	1417,868
1	0,000	93,839	1417,969
1	0,000	93,889	1418,069
1	0,000	93,889	1418,170
1	0,000	93,889	1418,372
1	0,000	93,889	1418,372
1	0,000	93,889	1418,472
1	0,000	93,889	1418,271
1	0,000	93,939	1418,674
1	0,000	93,939	1418,674
1	0,000	93,939	1418,472
1	0,000	93,939	1418,976
1	0,000	93,939	1419,077
1	0,000	93,989	1419,077
1	0,000	93,989	1419,077
1	0,000	93,989	1419,278
1	0,000	93,989	1419,278
1	0,000	93,989	1419,379
1	0,000	94,039	1419,479
1	0,000	94,039	1419,580
1	0,000	94,039	1419,479
1	0,000	94,039	1419,781
1	0,000	94,039	1419,882
1	0,000	94,090	1419,983
1	0,000	94,090	1420,084
1	0,000	94,090	1420,084
1	0,000	94,090	1420,386
1	0,000	94,090	1420,285
1	0,000	94,139	1420,084
1	0,000	94,139	1420,486
1	0,000	94,139	1420,587
1	0,000	94,139	1420,688
1	0,000	94,189	1420,789
1	0,000	94,189	1420,789
1	0,000	94,189	1420,889
1	0,000	94,189	1420,990
1	0,000	94,189	1421,191
1	0,000	94,189	1421,191
1	0,000	94,239	1421,292
1	0,000	94,239	1421,393
1	0,000	94,239	1421,494
1	0,000	94,239	1421,594
1	0,000	94,289	1421,695
1	0,000	94,289	1421,796
1	0,000	94,289	1421,896
1	0,000	94,289	1421,997
1	0,000	94,289	1421,997
1	0,000	94,289	1422,198
1	0,000	94,339	1422,299
1	0,000	94,339	1422,098
1	0,000	94,339	1422,501
1	0,000	94,339	1422,601
1	0,000	94,339	1422,601
1	0,000	94,389	1422,501
1	0,000	94,389	1422,903
1	0,000	94,389	1422,903
1	0,000	94,389	1423,105
1	0,000	94,439	1423,105
1	0,000	94,439	1423,105
1	0,000	94,439	1423,206
1	0,000	94,439	1423,306
1	0,000	94,439	1423,508
1	0,000	94,439	1423,508
1	0,000	94,490	1423,608
1	0,000	94,490	1423,709
1	0,000	94,490	1423,810
1	0,000	94,490	1423,911
1	0,000	94,490	1424,011
1	0,000	94,539	1424,011
1	0,000	94,539	1424,213
1	0,000	94,539	1424,313
1	0,000	94,539	1424,313
1	0,000	94,539	1424,515
1	0,000	94,590	1424,515
1	0,000	94,590	1424,615
1	0,000	94,590	1424,817
1	0,000	94,590	1424,817
1	0,000	94,640	1424,918
1	0,000	94,640	1425,018
1	0,000	94,640	1425,220
1	0,000	94,640	1425,220
1	0,000	94,640	1425,320
1	0,000	94,640	1425,421
1	0,000	94,690	1425,421
1	0,000	94,690	1425,623
1	0,000	94,690	1425,723
1	0,000	94,690	1425,824
1	0,000	94,690	1425,723
1	0,000	94,740	1425,925
1	0,000	94,740	1426,025
1	0,000	94,740	1426,126
1	0,000	94,740	1426,227
1	0,000	94,740	1426,428
1	0,000	94,790	1426,730
1	0,000	94,790	1426,730
1	0,000	94,790	1426,730
1	0,000	94,790	1426,730
1	0,000	94,790	1426,831
1	0,000	94,841	1426,932
1	0,000	94,841	1427,032
1	0,000	94,841	1427,032
1	0,000	94,841	1427,133
1	0,000	94,841	1427,234
1	0,000	94,891	1427,335
1	0,000	94,891	1427,435
1	0,000	94,891	1427,536
1	0,000	94,891	1427,536
1	0,000	94,891	1427,737
1	0,000	94,941	1427,838
1	0,000	94,941	1427,838
1	0,000	94,941	1428,040
1	0,000	94,941	1428,140
1	0,000	94,941	1428,241
1	0,000	94,991	1428,342
1	0,000	94,991	1428,342
1	0,000	94,991	1428,543
1	0,000	94,991	1428,342
1	0,000	94,991	1428,745
1	0,000	95,041	1428,745
1	0,000	95,041	1428,845
1	0,000	95,041	1429,047
1	0,000	95,041	1429,147
1	0,000	95,041	1429,147
1	0,000	95,091	1429,449
1	0,000	95,091	1429,349
1	0,000	95,091	1429,550
1	0,000	95,091	1429,752
1	0,000	95,091	1429,651
1	0,000	95,141	1429,752
1	0,000	95,141	1429,852
1	0,000	95,141	1429,953
1	0,000	95,141	1430,054
1	0,000	95,141	1430,154
1	0,000	95,191	1430,255
1	0,000	95,191	1430,255
1	0,000	95,191	1430,356
1	0,000	95,191	1430,557
1	0,000	95,191	1430,255
1	0,000	95,241	1430,759
1	0,000	95,241	1430,859
1	0,000	95,241	1430,859
1	0,000	95,241	1430,960
1	0,000	95,241	1431,161
1	0,000	95,241	1431,061
1	0,000	95,291	1431,262
1	0,000	95,291	1431,363
1	0,000	95,291	1431,464
1	0,000	95,291	1431,564
1	0,000	95,341	1431,665
1	0,000	95,341	1431,866
1	0,000	95,341	1431,866
1	0,000	95,341	1431,967
1	0,000	95,341	1431,967
1	0,000	95,391	1432,068
1	0,000	95,391	1432,269
1	0,000	95,391	1432,269
1	0,000	95,391	1432,471
1	0,000	95,391	1432,471
1	0,000	95,441	1432,672
1	0,000	95,441	1432,672
1	0,000	95,441	1432,874
1	0,000	95,441	1433,075
1	0,000	95,441	1433,176
1	0,000	95,491	1433,176
1	0,000	95,491	1433,176
1	0,000	95,491	1433,377
1	0,000	95,491	1433,377
1	0,000	95,491	1433,478
1	0,000	95,541	1433,578
1	0,000	95,541	1433,679
1	0,000	95,541	1433,679
1	0,000	95,541	1433,881
1	0,000	95,541	1433,881
1	0,000	95,591	1434,082
1	0,000	95,591	1434,082
1	0,000	95,591	1434,183
1	0,000	95,591	1434,283
1	0,000	95,591	1433,981
1	0,000	95,642	1434,485
1	0,000	95,642	1434,586
1	0,000	95,642	1434,686
1	0,000	95,642	1434,787
1	0,000	95,642	1434,888
1	0,000	95,692	1434,686
1	0,000	95,692	1434,988
1	0,000	95,692	1435,190
1	0,000	95,692	1435,291
1	0,000	95,692	1435,391
1	0,000	95,742	1435,492
1	0,000	95,742	1435,593
1	0,000	95,742	1435,693
1	0,000	95,742	1435,794
1	0,000	95,742	1435,895
1	0,000	95,792	1435,995
1	0,000	95,792	1436,096
1	0,000	95,792	1436,096
1	0,000	95,792	1436,197
1	0,000	95,792	1436,298
1	0,000	95,842	1436,398
1	0,000	95,842	1436,499
1	0,000	95,842	1436,700
1	0,000	95,842	1436,700
1	0,000	95,842	1436,902
1	0,000	95,893	1436,801
1	0,000	95,893	1436,801
1	0,000	95,893	1437,003
1	0,000	95,893	1437,204
1	0,000	95,893	1437,305
1	0,000	95,943	1437,305
1	0,000	95,943	1437,607
1	0,000	95,943	1437,607
1	0,000	95,943	1437,708
1	0,000	95,943	1437,808
1	0,000	95,993	1437,909
1	0,000	95,993	1438,110
1	0,000	95,993	1438,010
1	0,000	95,993	1438,010
1	0,000	95,993	1438,312
1	0,000	96,043	1438,010
1	0,000	96,043	1438,614
1	0,000	96,043	1438,614
1	0,000	96,043	1438,715
1	0,000	96,043	1438,815
1	0,000	96,093	1438,916
1	0,000	96,093	1439,017
1	0,000	96,093	1439,117
1	0,000	96,093	1439,218
1	0,000	96,093	1439,319
1	0,000	96,143	1439,420
1	0,000	96,143	1439,520
1	0,000	96,143	1439,621
1	0,000	96,143	1439,722
1	0,000	96,143	1439,822
1	0,000	96,193	1439,923
1	0,000	96,193	1439,923
1	0,000	96,193	1440,125
1	0,000	96,193	1440,125
1	0,000	96,193	1440,326
1	0,000	96,243	1440,326
1	0,000	96,243	1440,527
1	0,000	96,243	1440,628
1	0,000	96,243	1440,628
1	0,000	96,243	1440,729
1	0,000	96,293	1440,829
1	0,000	96,293	1441,031
1	0,000	96,293	1441,031
1	0,000	96,293	1441,132
1	0,000	96,293	1441,333
1	0,000	96,343	1441,333
1	0,000	96,343	1441,434
1	0,000	96,343	1441,534
1	0,000	96,343	1441,736
1	0,000	96,343	1441,937
1	0,000	96,393	1441,837
1	0,000	96,393	1441,736
1	0,000	96,393	1441,937
1	0,000	96,393	1442,139
1	0,000	96,393	1442,139
1	0,000	96,443	1442,239
1	0,000	96,443	1442,340
1	0,000	96,443	1442,441
1	0,000	96,443	1442,642
1	0,000	96,443	1442,642
1	0,000	96,494	1442,844
1	0,000	96,494	1442,844
1	0,000	96,494	1442,944
1	0,000	96,494	1443,045
1	0,000	96,494	1443,146
1	0,000	96,543	1443,246
1	0,000	96,543	1443,347
1	0,000	96,543	1443,448
1	0,000	96,543	1443,549
1	0,000	96,543	1443,750
1	0,000	96,594	1443,750
1	0,000	96,594	1443,851
1	0,000	96,594	1444,052
1	0,000	96,594	1444,153
1	0,000	96,594	1444,254
1	0,000	96,644	1444,455
1	0,000	96,644	1444,354
1	0,000	96,644	1444,455
1	0,000	96,644	1444,354
1	0,000	96,644	1444,656
1	0,000	96,694	1444,757
1	0,000	96,694	1444,858
1	0,000	96,694	1444,958
1	0,000	96,694	1445,059
1	0,000	96,694	1445,160
1	0,000	96,745	1445,261
1	0,000	96,745	1445,361
1	0,000	96,745	1444,958
1	0,000	96,745	1445,764
1	0,000	96,745	1445,663
1	0,000	96,794	1445,764
1	0,000	96,794	1445,865
1	0,000	96,794	1445,865
1	0,000	96,794	1446,066
1	0,000	96,794	1446,066
1	0,000	96,845	1446,167
1	0,000	96,845	1446,368
1	0,000	96,845	1446,469
1	0,000	96,845	1446,570
1	0,000	96,845	1446,771
1	0,000	96,895	1446,973
1	0,000	96,895	1446,973
1	0,000	96,895	1446,872
1	0,000	96,895	1447,073
1	0,000	96,895	1447,174
1	0,000	96,944	1447,275
1	0,000	96,944	1447,375
1	0,000	96,944	1447,476
1	0,000	96,944	1447,577
1	0,000	96,944	1447,678
1	0,000	96,994	1447,778
1	0,000	96,994	1447,879
1	0,000	96,994	1448,080
1	0,000	96,994	1448,181
1	0,000	96,994	1448,181
1	0,000	97,045	1448,282
1	0,000	97,045	1448,383
1	0,000	97,045	1448,483
1	0,000	97,045	1448,584
1	0,000	97,045	1448,685
1	0,000	97,095	1448,785
1	0,000	97,095	1448,785
1	0,000	97,095	1448,987
1	0,000	97,095	1449,188
1	0,000	97,095	1449,188
1	0,000	97,145	1449,390
1	0,000	97,145	1449,490
1	0,000	97,145	1449,490
1	0,000	97,145	1449,591
1	0,000	97,145	1449,692
1	0,000	97,195	1449,792
1	0,000	97,195	1449,893
1	0,000	97,195	1449,994
1	0,000	97,195	1450,095
1	0,000	97,195	1450,195
1	0,000	97,245	1450,397
1	0,000	97,245	1450,497
1	0,000	97,245	1450,598
1	0,000	97,245	1450,598
1	0,000	97,245	1450,800
1	0,000	97,296	1450,800
1	0,000	97,296	1450,900
1	0,000	97,296	1451,102
1	0,000	97,296	1451,202
1	0,000	97,296	1451,202
1	0,000	97,346	1451,303
1	0,000	97,346	1451,404
1	0,000	97,346	1451,605
1	0,000	97,346	1451,706
1	0,000	97,346	1451,303
1	0,000	97,396	1452,008
1	0,000	97,396	1451,907
1	0,000	97,396	1452,008
1	0,000	97,396	1452,109
1	0,000	97,396	1452,209
1	0,000	97,447	1452,310
1	0,000	97,447	1452,512
1	0,000	97,447	1452,512
1	0,000	97,447	1452,713
1	0,000	97,447	1452,713
1	0,000	97,496	1452,713
1	0,000	97,496	1453,015
1	0,000	97,496	1453,116
1	0,000	97,496	1453,116
1	0,000	97,496	1453,418
1	0,000	97,546	1453,418
1	0,000	97,546	1453,519
1	0,000	97,546	1453,519
1	0,000	97,546	1453,619
1	0,000	97,546	1453,720
1	0,000	97,596	1453,922
1	0,000	97,596	1454,022
1	0,000	97,596	1454,123
1	0,000	97,596	1454,224
1	0,000	97,596	1454,324
1	0,000	97,646	1454,425
1	0,000	97,646	1454,526
1	0,000	97,646	1454,626
1	0,000	97,646	1454,727
1	0,000	97,646	1454,828
1	0,000	97,697	1454,828
1	0,000	97,697	1455,029
1	0,000	97,697	1455,130
1	0,000	97,697	1455,130
1	0,000	97,697	1455,331
1	0,000	97,746	1455,432
1	0,000	97,746	1455,533
1	0,000	97,746	1455,634
1	0,000	97,746	1455,734
1	0,000	97,746	1455,835
1	0,000	97,796	1455,936
1	0,000	97,796	1455,936
1	0,000	97,796	1456,036
1	0,000	97,796	1456,238
1	0,000	97,796	1456,540
1	0,000	97,847	1456,439
1	0,000	97,847	1456,540
1	0,000	97,847	1456,540
1	0,000	97,847	1456,741
1	0,000	97,847	1456,842
1	0,000	97,897	1456,943
1	0,000	97,897	1457,144
1	0,000	97,897	1457,043
1	0,000	97,897	1457,346
1	0,000	97,897	1457,346
1	0,000	97,947	1457,446
1	0,000	97,947	1457,648
1	0,000	97,947	1457,748
1	0,000	97,947	1457,849
1	0,000	97,947	1457,849
1	0,000	97,997	1458,151
1	0,000	97,997	1458,151
1	0,000	97,997	1458,252
1	0,000	97,997	1458,353
1	0,000	97,997	1458,353
1	0,000	98,047	1458,554
1	0,000	98,047	1458,655
1	0,000	98,047	1458,755
1	0,000	98,047	1458,856
1	0,000	98,047	1458,957
1	0,000	98,097	1459,058
1	0,000	98,097	1459,259
1	0,000	98,097	1459,259
1	0,000	98,097	1459,460
1	0,000	98,097	1459,561
1	0,000	98,147	1459,662
1	0,000	98,147	1459,763
1	0,000	98,147	1459,863
1	0,000	98,147	1459,964
1	0,000	98,147	1460,065
1	0,000	98,196	1460,165
1	0,000	98,196	1460,266
1	0,000	98,196	1460,367
1	0,000	98,196	1460,568
1	0,000	98,196	1460,568
1	0,000	98,247	1460,669
1	0,000	98,247	1460,770
1	0,000	98,247	1460,870
1	0,000	98,247	1460,971
1	0,000	98,247	1461,172
1	0,000	98,296	1461,273
1	0,000	98,296	1461,374
1	0,000	98,296	1461,374
1	0,000	98,296	1461,475
1	0,000	98,296	1461,777
1	0,000	98,347	1461,777
1	0,000	98,347	1461,877
1	0,000	98,347	1461,877
1	0,000	98,347	1462,079
1	0,000	98,347	1462,180
1	0,000	98,397	1462,280
1	0,000	98,397	1462,381
1	0,000	98,397	1462,482
1	0,000	98,397	1462,582
1	0,000	98,397	1462,683
1	0,000	98,447	1462,885
1	0,000	98,447	1462,784
1	0,000	98,447	1462,985
1	0,000	98,447	1463,187
1	0,000	98,447	1463,187
1	0,000	98,496	1463,287
1	0,000	98,496	1463,388
1	0,000	98,496	1463,589
1	0,000	98,496	1463,690
1	0,000	98,496	1463,690
1	0,000	98,496	1463,791
1	0,000	98,547	1463,992
1	0,000	98,547	1464,093
1	0,000	98,547	1464,194
1	0,000	98,547	1464,294
1	0,000	98,596	1464,395
1	0,000	98,596	1464,496
1	0,000	98,596	1464,597
1	0,000	98,596	1464,697
1	0,000	98,596	1464,798
1	0,000	98,647	1464,899
1	0,000	98,647	1464,999
1	0,000	98,647	1465,201
1	0,000	98,647	1465,201
1	0,000	98,647	1465,402
1	0,000	98,697	1465,402
1	0,000	98,697	1465,503
1	0,000	98,697	1465,604
1	0,000	98,697	1465,906
1	0,000	98,697	1465,906
1	0,000	98,747	1466,006
1	0,000	98,747	1466,107
1	0,000	98,747	1466,208
1	0,000	98,747	1466,309
1	0,000	98,747	1466,309
1	0,000	98,747	1466,309
1	0,000	98,797	1466,611
1	0,000	98,797	1466,711
1	0,000	98,797	1466,812
1	0,000	98,797	1466,913
1	0,000	98,847	1466,611
1	0,000	98,847	1467,215
1	0,000	98,847	1467,316
1	0,000	98,847	1467,416
1	0,000	98,847	1467,618
1	0,000	98,897	1467,618
1	0,000	98,897	1467,719
1	0,000	98,897	1467,819
1	0,000	98,897	1467,920
1	0,000	98,897	1467,920
1	0,000	98,897	1467,920
1	0,000	98,947	1468,222
1	0,000	98,947	1468,323
1	0,000	98,947	1468,423
1	0,000	98,947	1468,524
1	0,000	98,997	1468,726
1	0,000	98,997	1468,826
1	0,000	98,997	1468,927
1	0,000	98,997	1468,927
1	0,000	98,997	1469,128
1	0,000	98,997	1469,229
1	0,000	99,047	1469,330
1	0,000	99,047	1469,431
1	0,000	99,047	1469,531
1	0,000	99,047	1469,632
1	0,000	99,097	1469,733
1	0,000	99,097	1469,833
1	0,000	99,097	1469,934
1	0,000	99,097	1470,035
1	0,000	99,097	1470,236
1	0,000	99,097	1470,337
1	0,000	99,148	1470,438
1	0,000	99,148	1470,538
1	0,000	99,148	1470,639
1	0,000	99,148	1470,840
1	0,000	99,148	1470,941
1	0,000	99,198	1470,840
1	0,000	99,198	1471,143
1	0,000	99,198	1471,143
1	0,000	99,198	1471,344
1	0,000	99,198	1471,344
1	0,000	99,248	1471,445
1	0,000	99,248	1471,545
1	0,000	99,248	1471,646
1	0,000	99,248	1471,848
1	0,000	99,248	1471,948
1	0,000	99,298	1471,948
1	0,000	99,298	1472,250
1	0,000	99,298	1472,250
1	0,000	99,298	1472,452
1	0,000	99,298	1472,552
1	0,000	99,349	1472,653
1	0,000	99,349	1472,653
1	0,000	99,349	1472,855
1	0,000	99,349	1472,955
1	0,000	99,349	1473,056
1	0,000	99,399	1473,257
1	0,000	99,399	1473,257
1	0,000	99,399	1473,358
1	0,000	99,399	1473,459
1	0,000	99,399	1473,660
1	0,000	99,448	1473,761
1	0,000	99,448	1473,761
1	0,000	99,448	1473,962
1	0,000	99,448	1474,063
1	0,000	99,448	1474,063
1	0,000	99,498	1474,265
1	0,000	99,498	1474,265
1	0,000	99,498	1474,466
1	0,000	99,498	1474,466
1	0,000	99,498	1474,667
1	0,000	99,549	1474,768
1	0,000	99,549	1474,969
1	0,000	99,549	1474,969
1	0,000	99,549	1475,070
1	0,000	99,549	1474,567
1	0,000	99,599	1475,171
1	0,000	99,599	1475,574
1	0,000	99,599	1475,272
1	0,000	99,599	1475,674
1	0,000	99,599	1475,775
1	0,000	99,650	1475,876
1	0,000	99,650	1476,077
1	0,000	99,650	1476,077
1	0,000	99,650	1476,178
1	0,000	99,650	1476,279
1	0,000	99,700	1476,379
1	0,000	99,700	1476,480
1	0,000	99,700	1476,682
1	0,000	99,700	1476,782
1	0,000	99,700	1476,782
1	0,000	99,750	1476,984
1	0,000	99,750	1477,084
1	0,000	99,750	1477,185
1	0,000	99,750	1477,386
1	0,000	99,750	1477,386
1	0,000	99,801	1477,588
1	0,000	99,801	1477,588
1	0,000	99,801	1477,588
1	0,000	99,801	1477,890
1	0,000	99,801	1477,991
1	0,000	99,851	1478,192
1	0,000	99,851	1478,091
1	0,000	99,851	1478,293
1	0,000	99,851	1478,394
1	0,000	99,851	1478,494
1	0,000	99,901	1478,696
1	0,000	99,901	1478,696
1	0,000	99,901	1478,998
1	0,000	99,901	1478,998
1	0,000	99,901	1479,199
1	0,000	99,951	1479,300
1	0,000	99,951	1479,401
1	0,000	99,951	1479,401
1	0,000	99,951	1479,501
1	0,000	99,951	1479,703
1	0,000	100,001	1479,803
1	0,000	100,001	1479,904
1	0,000	100,001	1480,005
1	0,000	100,001	1480,206
1	0,000	100,001	1480,206
1	0,000	100,051	1480,307
1	0,000	100,051	1480,408
1	0,000	100,051	1480,609
1	0,000	100,051	1480,609
1	0,000	100,051	1480,811
1	0,000	100,101	1480,911
1	0,000	100,101	1481,113
1	0,000	100,101	1481,113
1	0,000	100,101	1481,314
1	0,000	100,101	1481,314
1	0,000	100,152	1481,415
1	0,000	100,152	1481,516
1	0,000	100,152	1481,717
1	0,000	100,152	1481,818
1	0,000	100,152	1481,818
1	0,000	100,201	1482,019
1	0,000	100,201	1482,019
1	0,000	100,201	1482,220
1	0,000	100,201	1482,523
1	0,000	100,201	1482,623
1	0,000	100,252	1482,623
1	0,000	100,252	1482,623
1	0,000	100,252	1482,825
1	0,000	100,252	1482,925
1	0,000	100,252	1483,026
1	0,000	100,302	1483,127
1	0,000	100,302	1483,328
1	0,000	100,302	1483,429
1	0,000	100,302	1483,530
1	0,000	100,302	1483,630
1	0,000	100,353	1483,731
1	0,000	100,353	1483,832
1	0,000	100,353	1483,932
1	0,000	100,353	1484,033
1	0,000	100,353	1484,134
1	0,000	100,403	1484,235
1	0,000	100,403	1484,335
1	0,000	100,403	1484,436
1	0,000	100,403	1484,537
1	0,000	100,403	1484,738
1	0,000	100,453	1484,839
1	0,000	100,453	1484,940
1	0,000	100,453	1485,040
1	0,000	100,453	1485,242
1	0,000	100,453	1485,242
1	0,000	100,503	1485,342
1	0,000	100,503	1485,544
1	0,000	100,503	1485,645
1	0,000	100,503	1485,745
1	0,000	100,503	1485,947
1	0,000	100,553	1486,249
1	0,000	100,553	1486,148
1	0,000	100,553	1486,148
1	0,000	100,553	1486,349
1	0,000	100,553	1486,450
1	0,000	100,603	1486,551
1	0,000	100,603	1486,652
1	0,000	100,603	1486,752
1	0,000	100,603	1486,551
1	0,000	100,603	1487,054
1	0,000	100,654	1487,155
1	0,000	100,654	1487,256
1	0,000	100,654	1487,256
1	0,000	100,654	1487,457
1	0,000	100,654	1487,558
1	0,000	100,703	1487,759
1	0,000	100,703	1487,860
1	0,000	100,703	1487,961
1	0,000	100,703	1488,062
1	0,000	100,703	1488,162
1	0,000	100,753	1488,162
1	0,000	100,753	1488,364
1	0,000	100,753	1488,464
1	0,000	100,753	1488,565
1	0,000	100,753	1488,766
1	0,000	100,803	1488,867
1	0,000	100,803	1488,867
1	0,000	100,803	1488,867
1	0,000	100,803	1489,169
1	0,000	100,803	1489,270
1	0,000	100,853	1489,270
1	0,000	100,853	1489,371
1	0,000	100,853	1489,673
1	0,000	100,853	1489,673
1	0,000	100,853	1489,874
1	0,000	100,903	1489,874
1	0,000	100,903	1489,874
1	0,000	100,903	1490,176
1	0,000	100,903	1490,277
1	0,000	100,903	1490,378
1	0,000	100,953	1490,579
1	0,000	100,953	1490,579
1	0,000	100,953	1490,881
1	0,000	100,953	1490,781
1	0,000	100,953	1490,982
1	0,000	101,004	1491,083
1	0,000	101,004	1491,083
1	0,000	101,004	1491,284
1	0,000	101,004	1491,284
1	0,000	101,004	1491,486
1	0,000	101,054	1491,586
1	0,000	101,054	1491,788
1	0,000	101,054	1491,888
1	0,000	101,054	1491,888
1	0,000	101,054	1492,090
1	0,000	101,054	1492,191
1	0,000	101,104	1492,392
1	0,000	101,104	1492,392
1	0,000	101,104	1492,593
1	0,000	101,104	1492,694
1	0,000	101,154	1492,694
1	0,000	101,154	1492,896
1	0,000	101,154	1492,996
1	0,000	101,154	1493,097
1	0,000	101,154	1493,198
1	0,000	101,204	1493,298
1	0,000	101,204	1493,600
1	0,000	101,204	1493,500
1	0,000	101,204	1493,701
1	0,000	101,204	1493,701
1	0,000	101,255	1493,600
1	0,000	101,255	1494,104
1	0,000	101,255	1494,205
1	0,000	101,255	1494,205
1	0,000	101,255	1494,406
1	0,000	101,304	1494,507
1	0,000	101,304	1494,608
1	0,000	101,304	1494,708
1	0,000	101,304	1494,910
1	0,000	101,304	1495,010
1	0,000	101,354	1495,111
1	0,000	101,354	1495,111
1	0,000	101,354	1495,111
1	0,000	101,354	1495,514
1	0,000	101,354	1495,514
1	0,000	101,404	1495,615
1	0,000	101,404	1495,816
1	0,000	101,404	1495,917
1	0,000	101,404	1496,118
1	0,000	101,404	1496,219
1	0,000	101,454	1496,320
1	0,000	101,454	1496,420
1	0,000	101,454	1496,521
1	0,000	101,454	1496,722
1	0,000	101,454	1496,823
1	0,000	101,504	1496,924
1	0,000	101,504	1497,025
1	0,000	101,504	1497,327
1	0,000	101,504	1497,226
1	0,000	101,504	1497,327
1	0,000	101,554	1497,427
1	0,000	101,554	1497,629
1	0,000	101,554	1497,629
1	0,000	101,554	1497,629
1	0,000	101,554	1497,931
1	0,000	101,604	1498,032
1	0,000	101,604	1498,132
1	0,000	101,604	1498,233
1	0,000	101,604	1498,434
1	0,000	101,604	1498,434
1	0,000	101,654	1498,535
1	0,000	101,654	1498,233
1	0,000	101,654	1498,938
1	0,000	101,654	1498,938
1	0,000	101,654	1499,039
1	0,000	101,705	1499,240
1	0,000	101,705	1499,240
1	0,000	101,705	1499,341
1	0,000	101,705	1499,542
1	0,000	101,705	1499,643
1	0,000	101,755	1499,744
1	0,000	101,755	1499,844
1	0,000	101,755	1500,046
1	0,000	101,755	1500,046
1	0,000	101,755	1500,247
1	0,000	101,805	1500,046
1	0,000	101,805	1500,449
1	0,000	101,805	1500,650
1	0,000	101,805	1500,751
1	0,000	101,805	1500,549
1	0,000	101,855	1501,154
1	0,000	101,855	1500,851
1	0,000	101,855	1501,254
1	0,000	101,855	1501,355
1	0,000	101,855	1501,657
1	0,000	101,905	1501,556
1	0,000	101,905	1501,657
1	0,000	101,905	1501,758
1	0,000	101,905	1501,859
1	0,000	101,905	1502,060
1	0,000	101,956	1502,060
1	0,000	101,956	1502,261
1	0,000	101,956	1502,362
1	0,000	101,956	1502,463
1	0,000	101,956	1502,563
1	0,000	102,005	1502,664
1	0,000	102,005	1502,866
1	0,000	102,005	1502,966
1	0,000	102,005	1503,067
1	0,000	102,005	1503,168
1	0,000	102,055	1503,268
1	0,000	102,055	1503,470
1	0,000	102,055	1503,571
1	0,000	102,055	1503,671
1	0,000	102,055	1503,772
1	0,000	102,106	1503,973
1	0,000	102,106	1504,074
1	0,000	102,106	1504,175
1	0,000	102,106	1504,276
1	0,000	102,106	1504,276
1	0,000	102,155	1504,578
1	0,000	102,155	1504,578
1	0,000	102,155	1504,779
1	0,000	102,155	1504,980
1	0,000	102,155	1504,980
1	0,000	102,205	1505,081
1	0,000	102,205	1505,182
1	0,000	102,205	1505,383
1	0,000	102,205	1505,484
1	0,000	102,205	1505,685
1	0,000	102,255	1505,786
1	0,000	102,255	1505,887
1	0,000	102,255	1505,988
1	0,000	102,255	1506,088
1	0,000	102,255	1506,290
1	0,000	102,255	1506,290
1	0,000	102,306	1506,491
1	0,000	102,306	1506,592
1	0,000	102,306	1506,693
1	0,000	102,306	1506,894
1	0,000	102,306	1506,995
1	0,000	102,356	1506,995
1	0,000	102,356	1507,297
1	0,000	102,356	1507,397
1	0,000	102,356	1507,498
1	0,000	102,406	1507,599
1	0,000	102,406	1507,800
1	0,000	102,406	1507,901
1	0,000	102,406	1508,002
1	0,000	102,406	1508,203
1	0,000	102,406	1508,304
1	0,000	102,456	1508,304
1	0,000	102,456	1508,505
1	0,000	102,456	1508,707
1	0,000	102,456	1508,707
1	0,000	102,506	1508,908
1	0,000	102,506	1509,009
1	0,000	102,506	1509,109
1	0,000	102,506	1509,210
1	0,000	102,506	1509,412
1	0,000	102,506	1509,412
1	0,000	102,556	1509,512
1	0,000	102,556	1509,613
1	0,000	102,556	1509,714
1	0,000	102,556	1509,814
1	0,000	102,556	1510,016
1	0,000	102,606	1510,117
1	0,000	102,606	1510,217
1	0,000	102,606	1510,318
1	0,000	102,606	1510,519
1	0,000	102,606	1510,519
1	0,000	102,656	1510,822
1	0,000	102,656	1510,922
1	0,000	102,656	1510,922
1	0,000	102,656	1511,124
1	0,000	102,656	1511,124
1	0,000	102,706	1511,426
1	0,000	102,706	1511,627
1	0,000	102,706	1511,829
1	0,000	102,706	1511,627
1	0,000	102,706	1511,829
1	0,000	102,757	1512,030
1	0,000	102,757	1512,030
1	0,000	102,757	1512,231
1	0,000	102,757	1512,332
1	0,000	102,757	1512,433
1	0,000	102,807	1512,534
1	0,000	102,807	1512,534
1	0,000	102,807	1512,836
1	0,000	102,807	1512,634
1	0,000	102,807	1512,936
1	0,000	102,857	1513,138
1	0,000	102,857	1513,239
1	0,000	102,857	1513,440
1	0,000	102,857	1513,541
1	0,000	102,857	1513,641
1	0,000	102,907	1513,742
1	0,000	102,907	1514,044
1	0,000	102,907	1513,943
1	0,000	102,907	1514,145
1	0,000	102,957	1514,246
1	0,000	102,957	1514,346
1	0,000	102,957	1514,447
1	0,000	102,957	1514,548
1	0,000	102,957	1514,749
1	0,000	102,957	1514,749
1	0,000	103,007	1514,850
1	0,000	103,007	1515,152
1	0,000	103,007	1515,152
1	0,000	103,007	1515,353
1	0,000	103,007	1515,454
1	0,000	103,057	1515,656
1	0,000	103,057	1515,756
1	0,000	103,057	1515,857
1	0,000	103,057	1515,958
1	0,000	103,057	1516,159
1	0,000	103,107	1516,260
1	0,000	103,107	1516,360
1	0,000	103,107	1516,461
1	0,000	103,107	1516,562
1	0,000	103,107	1516,663
1	0,000	103,158	1516,864
1	0,000	103,158	1516,965
1	0,000	103,158	1517,065
1	0,000	103,158	1517,166
1	0,000	103,158	1517,368
1	0,000	103,208	1517,468
1	0,000	103,208	1517,569
1	0,000	103,208	1517,770
1	0,000	103,208	1517,770
1	0,000	103,208	1517,972
1	0,000	103,258	1518,073
1	0,000	103,258	1518,173
1	0,000	103,258	1518,173
1	0,000	103,258	1517,871
1	0,000	103,258	1518,677
1	0,000	103,308	1518,677
1	0,000	103,308	1518,777
1	0,000	103,308	1518,878
1	0,000	103,308	1519,080
1	0,000	103,308	1519,180
1	0,000	103,358	1519,382
1	0,000	103,358	1519,382
1	0,000	103,358	1519,583
1	0,000	103,358	1519,684
1	0,000	103,358	1519,785
1	0,000	103,408	1519,986
1	0,000	103,408	1519,986
1	0,000	103,408	1520,187
1	0,000	103,408	1520,288
1	0,000	103,408	1520,490
1	0,000	103,458	1520,590
1	0,000	103,458	1520,590
1	0,000	103,458	1520,792
1	0,000	103,458	1520,792
1	0,000	103,458	1520,993
1	0,000	103,508	1521,194
1	0,000	103,508	1521,396
1	0,000	103,508	1521,396
1	0,000	103,508	1521,497
1	0,000	103,508	1521,799
1	0,000	103,558	1522,000
1	0,000	103,558	1521,899
1	0,000	103,558	1522,000
1	0,000	103,558	1522,101
1	0,000	103,558	1522,302
1	0,000	103,609	1522,403
1	0,000	103,609	1522,504
1	0,000	103,609	1522,604
1	0,000	103,609	1522,705
1	0,000	103,609	1522,906
1	0,000	103,659	1522,906
1	0,000	103,659	1523,209
1	0,000	103,659	1523,209
1	0,000	103,659	1523,410
1	0,000	103,659	1523,410
1	0,000	103,709	1523,611
1	0,000	103,709	1523,813
1	0,000	103,709	1523,914
1	0,000	103,709	1524,014
1	0,000	103,709	1524,115
1	0,000	103,759	1524,216
1	0,000	103,759	1524,316
1	0,000	103,759	1524,417
1	0,000	103,759	1524,619
1	0,000	103,759	1524,719
1	0,000	103,809	1524,719
1	0,000	103,809	1525,122
1	0,000	103,809	1525,122
1	0,000	103,809	1525,223
1	0,000	103,809	1525,323
1	0,000	103,860	1525,525
1	0,000	103,860	1525,424
1	0,000	103,860	1525,827
1	0,000	103,860	1525,928
1	0,000	103,860	1526,129
1	0,000	103,909	1526,129
1	0,000	103,909	1526,230
1	0,000	103,909	1526,431
1	0,000	103,909	1526,633
1	0,000	103,909	1526,834
1	0,000	103,960	1526,834
1	0,000	103,960	1526,935
1	0,000	103,960	1527,136
1	0,000	103,960	1527,237
1	0,000	103,960	1527,338
1	0,000	104,009	1527,438
1	0,000	104,009	1527,539
1	0,000	104,009	1527,740
1	0,000	104,009	1527,740
1	0,000	104,009	1528,043
1	0,000	104,060	1528,143
1	0,000	104,060	1528,143
1	0,000	104,060	1528,345
1	0,000	104,060	1528,445
1	0,000	104,060	1528,546
1	0,000	104,109	1528,647
1	0,000	104,109	1528,848
1	0,000	104,109	1528,949
1	0,000	104,109	1529,050
1	0,000	104,109	1529,251
1	0,000	104,159	1529,352
1	0,000	104,159	1529,453
1	0,000	104,159	1529,654
1	0,000	104,159	1529,755
1	0,000	104,159	1529,553
1	0,000	104,210	1530,057
1	0,000	104,210	1530,057
1	0,000	104,210	1530,258
1	0,000	104,210	1530,359
1	0,000	104,210	1530,661
1	0,000	104,259	1530,661
1	0,000	104,259	1530,762
1	0,000	104,259	1530,862
1	0,000	104,259	1530,963
1	0,000	104,259	1531,064
1	0,000	104,310	1531,265
1	0,000	104,310	1531,366
1	0,000	104,310	1531,668
1	0,000	104,310	1531,567
1	0,000	104,310	1531,769
1	0,000	104,360	1531,870
1	0,000	104,360	1531,970
1	0,000	104,360	1532,071
1	0,000	104,360	1532,272
1	0,000	104,360	1532,474
1	0,000	104,410	1532,373
1	0,000	104,410	1532,877
1	0,000	104,410	1532,776
1	0,000	104,410	1533,078
1	0,000	104,410	1533,078
1	0,000	104,460	1533,279
1	0,000	104,460	1533,380
1	0,000	104,460	1533,481
1	0,000	104,460	1533,582
1	0,000	104,460	1533,783
1	0,000	104,510	1533,884
1	0,000	104,510	1534,085
1	0,000	104,510	1534,186
1	0,000	104,510	1534,286
1	0,000	104,510	1534,387
1	0,000	104,560	1534,387
1	0,000	104,560	1534,387
1	0,000	104,560	1534,689
1	0,000	104,560	1534,991
1	0,000	104,560	1534,991
1	0,000	104,609	1535,193
1	0,000	104,609	1535,294
1	0,000	104,609	1535,495
1	0,000	104,609	1535,797
1	0,000	104,609	1535,596
1	0,000	104,660	1535,898
1	0,000	104,660	1535,898
1	0,000	104,660	2019,397
1	0,000	104,660	1535,696
1	0,000	104,660	1536,200
1	0,000	104,660	1536,301
1	0,000	104,710	1536,401
1	0,000	104,710	1536,603
1	0,000	104,710	1536,703
1	0,000	104,710	1536,703
1	0,000	104,710	1536,905
1	0,000	104,761	1536,804
1	0,000	104,761	1537,207
1	0,000	104,761	1537,308
1	0,000	104,761	1537,509
1	0,000	104,761	1537,610
1	0,000	104,811	1537,711
1	0,000	104,811	1537,811
1	0,000	104,811	1538,013
1	0,000	104,811	1538,214
1	0,000	104,811	1538,315
1	0,000	104,861	1538,516
1	0,000	104,861	1538,718
1	0,000	104,861	1538,718
1	0,000	104,861	1538,818
1	0,000	104,861	1538,919
1	0,000	104,911	1539,120
1	0,000	104,911	1539,221
1	0,000	104,911	1539,322
1	0,000	104,911	1539,523
1	0,000	104,911	1539,624
1	0,000	104,961	1539,825
1	0,000	104,961	1539,926
1	0,000	104,961	1540,027
1	0,000	104,961	1540,329
1	0,000	104,961	1540,228
1	0,000	105,011	1540,530
1	0,000	105,011	1540,430
1	0,000	105,011	1540,631
1	0,000	105,011	1540,833
1	0,000	105,011	1540,933
1	0,000	105,061	1541,034
1	0,000	105,061	1541,235
1	0,000	105,061	1541,336
1	0,000	105,061	1541,437
1	0,000	105,061	1541,537
1	0,000	105,111	1541,638
1	0,000	105,111	1541,840
1	0,000	105,111	1541,940
1	0,000	105,111	1542,041
1	0,000	105,111	1542,041
1	0,000	105,161	1542,343
1	0,000	105,161	1542,142
1	0,000	105,161	1542,545
1	0,000	105,161	1542,645
1	0,000	105,161	1543,048
1	0,000	105,211	1543,048
1	0,000	105,211	1543,250
1	0,000	105,211	1543,250
1	0,000	105,211	1543,250
1	0,000	105,211	1543,552
1	0,000	105,261	1543,652
1	0,000	105,261	1543,854
1	0,000	105,261	1543,954
1	0,000	105,261	1544,055
1	0,000	105,261	1544,156
1	0,000	105,311	1544,357
1	0,000	105,311	1544,458
1	0,000	105,311	1544,559
1	0,000	105,311	1544,760
1	0,000	105,311	1544,861
1	0,000	105,361	1545,062
1	0,000	105,361	1545,163
1	0,000	105,361	1545,264
1	0,000	105,361	1545,465
1	0,000	105,361	1545,667
1	0,000	105,411	1545,767
1	0,000	105,411	1545,868
1	0,000	105,411	1546,170
1	0,000	105,411	1546,271
1	0,000	105,411	1546,472
1	0,000	105,462	1546,573
1	0,000	105,462	1546,774
1	0,000	105,462	1546,674
1	0,000	105,462	1546,976
1	0,000	105,462	1547,177
1	0,000	105,510	1547,177
1	0,000	105,510	1547,177
1	0,000	105,510	1547,278
1	0,000	105,510	1547,177
1	0,000	105,510	1547,580
1	0,000	105,561	1547,580
1	0,000	105,561	1547,781
1	0,000	105,561	1547,983
1	0,000	105,561	1548,083
1	0,000	105,561	1548,285
1	0,000	105,611	1548,386
1	0,000	105,611	1548,587
1	0,000	105,611	1548,788
1	0,000	105,611	1548,788
1	0,000	105,611	1548,889
1	0,000	105,661	1548,990
1	0,000	105,661	1549,393
1	0,000	105,661	1549,594
1	0,000	105,661	1549,695
1	0,000	105,661	1549,796
1	0,000	105,711	1549,896
1	0,000	105,711	1549,997
1	0,000	105,711	1550,198
1	0,000	105,711	1550,400
1	0,000	105,711	1550,400
1	0,000	105,761	1550,601
1	0,000	105,761	1550,702
1	0,000	105,761	1550,903
1	0,000	105,761	1551,004
1	0,000	105,761	1551,004
1	0,000	105,811	1551,105
1	0,000	105,811	1551,205
1	0,000	105,811	1551,407
1	0,000	105,811	1551,306
1	0,000	105,811	1551,407
1	0,000	105,862	1551,709
1	0,000	105,862	1551,910
1	0,000	105,862	1551,910
1	0,000	105,862	1552,213
1	0,000	105,862	1552,213
1	0,000	105,911	1552,213
1	0,000	105,911	1552,313
1	0,000	105,911	1552,515
1	0,000	105,911	1552,716
1	0,000	105,911	1552,515
1	0,000	105,961	1552,917
1	0,000	105,961	1552,917
1	0,000	105,961	1553,220
1	0,000	105,961	1553,320
1	0,000	105,961	1553,421
1	0,000	106,011	1553,824
1	0,000	106,011	1554,025
1	0,000	106,011	1554,126
1	0,000	106,011	1554,227
1	0,000	106,011	1553,925
1	0,000	106,061	1554,529
1	0,000	106,061	1554,630
1	0,000	106,061	1554,831
1	0,000	106,061	1554,932
1	0,000	106,061	1555,133
1	0,000	106,111	1555,234
1	0,000	106,111	1555,334
1	0,000	106,111	1555,435
1	0,000	106,111	1555,334
1	0,000	106,111	1555,838
1	0,000	106,161	1555,939
1	0,000	106,161	1556,039
1	0,000	106,161	1556,039
1	0,000	106,161	1556,342
1	0,000	106,161	1556,442
1	0,000	106,211	1556,543
1	0,000	106,211	1556,644
1	0,000	106,211	1556,744
1	0,000	106,211	1556,744
1	0,000	106,211	1556,845
1	0,000	106,261	1556,946
1	0,000	106,261	1557,047
1	0,000	106,261	1557,147
1	0,000	106,261	1557,349
1	0,000	106,261	1557,449
1	0,000	106,311	1557,651
1	0,000	106,311	1557,751
1	0,000	106,311	1557,852
1	0,000	106,311	1558,054
1	0,000	106,311	1558,154
1	0,000	106,361	1558,154
1	0,000	106,361	1558,255
1	0,000	106,361	1558,557
1	0,000	106,361	1559,061
1	0,000	106,361	1559,161
1	0,000	106,411	1559,262
1	0,000	106,411	1559,363
1	0,000	106,411	1559,464
1	0,000	106,411	1559,665
1	0,000	106,411	1559,766
1	0,000	106,461	1559,967
1	0,000	106,461	1560,068
1	0,000	106,461	1560,168
1	0,000	106,461	1560,269
1	0,000	106,461	1560,571
1	0,000	106,511	1560,672
1	0,000	106,511	1560,672
1	0,000	106,511	1560,873
1	0,000	106,511	1560,873
1	0,000	106,511	1561,075
1	0,000	106,561	1561,176
1	0,000	106,561	1561,276
1	0,000	106,561	1561,377
1	0,000	106,561	1561,377
1	0,000	106,561	1561,578
1	0,000	106,611	1561,679
1	0,000	106,611	1561,981
1	0,000	106,611	1562,183
1	0,000	106,611	1562,082
1	0,000	106,611	1562,485
1	0,000	106,662	1562,585
1	0,000	106,662	1562,888
1	0,000	106,662	1562,988
1	0,000	106,662	1563,190
1	0,000	106,662	1563,290
1	0,000	106,712	1563,391
1	0,000	106,712	1563,492
1	0,000	106,712	1563,593
1	0,000	106,712	1563,693
1	0,000	106,712	1563,895
1	0,000	106,761	1563,995
1	0,000	106,761	1564,197
1	0,000	106,761	1564,297
1	0,000	106,761	1564,398
1	0,000	106,761	1564,600
1	0,000	106,812	1564,600
1	0,000	106,812	1564,902
1	0,000	106,812	1565,002
1	0,000	106,812	1565,103
1	0,000	106,812	1565,204
1	0,000	106,862	1565,405
1	0,000	106,862	1565,506
1	0,000	106,862	1565,607
1	0,000	106,862	1565,707
1	0,000	106,862	1565,909
1	0,000	106,912	1566,010
1	0,000	106,912	1566,110
1	0,000	106,912	1566,312
1	0,000	106,912	1566,412
1	0,000	106,912	1566,614
1	0,000	106,962	1566,815
1	0,000	106,962	1567,117
1	0,000	106,962	1567,117
1	0,000	106,962	1567,319
1	0,000	106,962	1567,520
1	0,000	107,012	1567,520
1	0,000	107,012	1567,621
1	0,000	107,012	1567,722
1	0,000	107,012	1567,923
1	0,000	107,012	1568,024
1	0,000	107,061	1568,225
1	0,000	107,061	1568,326
1	0,000	107,061	1568,427
1	0,000	107,061	1568,628
1	0,000	107,061	1568,729
1	0,000	107,112	1568,829
1	0,000	107,112	1569,031
1	0,000	107,112	1569,131
1	0,000	107,112	1569,333
1	0,000	107,112	1569,434
1	0,000	107,162	1569,534
1	0,000	107,162	1569,635
1	0,000	107,162	1569,736
1	0,000	107,162	1569,937
1	0,000	107,162	1570,038
1	0,000	107,212	1570,239
1	0,000	107,212	1570,340
1	0,000	107,212	1570,441
1	0,000	107,212	1570,642
1	0,000	107,212	1570,944
1	0,000	107,262	1571,045
1	0,000	107,262	1571,045
1	0,000	107,262	1571,347
1	0,000	107,262	1571,448
1	0,000	107,262	1571,548
1	0,000	107,312	1571,649
1	0,000	107,312	1571,851
1	0,000	107,312	1571,951
1	0,000	107,312	1572,153
1	0,000	107,312	1572,253
1	0,000	107,362	1572,354
1	0,000	107,362	1572,455
1	0,000	107,362	1572,656
1	0,000	107,362	1572,757
1	0,000	107,362	1572,858
1	0,000	107,413	1573,059
1	0,000	107,413	1573,260
1	0,000	107,413	1573,361
1	0,000	107,413	1573,462
1	0,000	107,413	1573,663
1	0,000	107,462	1573,764
1	0,000	107,462	1573,865
1	0,000	107,462	1574,066
1	0,000	107,462	1574,167
1	0,000	107,462	1574,368
1	0,000	107,512	1574,469
1	0,000	107,512	1574,570
1	0,000	107,512	1574,771
1	0,000	107,512	1574,872
1	0,000	107,512	1574,973
1	0,000	107,562	1575,174
1	0,000	107,562	1575,375
1	0,000	107,562	1575,476
1	0,000	107,562	1575,677
1	0,000	107,562	1575,778
1	0,000	107,612	1575,778
1	0,000	107,612	1576,181
1	0,000	107,612	1576,282
1	0,000	107,612	1576,382
1	0,000	107,612	1576,584
1	0,000	107,612	1576,685
1	0,000	107,662	1576,785
1	0,000	107,662	1576,987
1	0,000	107,662	1577,087
1	0,000	107,662	1577,289
1	0,000	107,712	1577,390
1	0,000	107,712	1577,490
1	0,000	107,712	1577,692
1	0,000	107,712	1577,792
1	0,000	107,712	1577,893
1	0,000	107,763	1578,094
1	0,000	107,763	1578,195
1	0,000	107,763	1578,296
1	0,000	107,763	1578,296
1	0,000	107,763	1578,598
1	0,000	107,812	1578,699
1	0,000	107,812	1578,900
1	0,000	107,812	1579,001
1	0,000	107,812	1579,202
1	0,000	107,812	1579,303
1	0,000	107,862	1579,404
1	0,000	107,862	1579,504
1	0,000	107,862	1579,605
1	0,000	107,862	1580,008
1	0,000	107,862	1580,008
1	0,000	107,912	1580,109
1	0,000	107,912	1580,310
1	0,000	107,912	1580,511
1	0,000	107,912	1580,612
1	0,000	107,912	1580,814
1	0,000	107,962	1580,914
1	0,000	107,962	1581,116
1	0,000	107,962	1581,216
1	0,000	107,962	1581,418
1	0,000	107,962	1581,519
1	0,000	108,013	1581,821
1	0,000	108,013	1581,720
1	0,000	108,013	1582,022
1	0,000	108,013	1582,123
1	0,000	108,013	1582,224
1	0,000	108,013	1582,324
1	0,000	108,063	1582,425
1	0,000	108,063	1582,626
1	0,000	108,063	1582,727
1	0,000	108,063	1582,828
1	0,000	108,063	1583,029
1	0,000	108,113	1583,130
1	0,000	108,113	1583,231
1	0,000	108,113	1583,331
1	0,000	108,113	1583,533
1	0,000	108,113	1583,734
1	0,000	108,163	1583,835
1	0,000	108,163	1583,936
1	0,000	108,163	1584,137
1	0,000	108,163	1584,137
1	0,000	108,163	1584,439
1	0,000	108,214	1584,540
1	0,000	108,214	1584,641
1	0,000	108,214	1584,842
1	0,000	108,214	1584,943
1	0,000	108,214	1585,345
1	0,000	108,264	1585,345
1	0,000	108,264	1585,446
1	0,000	108,264	1585,648
1	0,000	108,264	1585,748
1	0,000	108,264	1585,950
1	0,000	108,314	1586,050
1	0,000	108,314	1586,151
1	0,000	108,314	1586,050
1	0,000	108,314	1586,453
1	0,000	108,314	1586,554
1	0,000	108,364	1586,755
1	0,000	108,364	1586,856
1	0,000	108,364	1586,957
1	0,000	108,364	1587,158
1	0,000	108,364	1587,259
1	0,000	108,415	1587,360
1	0,000	108,415	1587,460
1	0,000	108,415	1587,662
1	0,000	108,415	1587,762
1	0,000	108,415	1587,964
1	0,000	108,465	1587,964
1	0,000	108,465	1588,266
1	0,000	108,465	1588,367
1	0,000	108,465	1588,467
1	0,000	108,465	1588,568
1	0,000	108,515	1588,770
1	0,000	108,515	1588,870
1	0,000	108,515	1589,072
1	0,000	108,515	1589,172
1	0,000	108,515	1589,374
1	0,000	108,565	1589,374
1	0,000	108,565	1588,770
1	0,000	108,565	1589,877
1	0,000	108,565	1589,978
1	0,000	108,565	1590,280
1	0,000	108,615	1590,381
1	0,000	108,615	1590,582
1	0,000	108,615	1589,978
1	0,000	108,615	1590,582
1	0,000	108,615	1590,884
1	0,000	108,665	1591,086
1	0,000	108,665	1591,187
1	0,000	108,665	1591,388
1	0,000	108,665	1591,388
1	0,000	108,665	1591,489
1	0,000	108,715	1591,690
1	0,000	108,715	1591,791
1	0,000	108,715	1591,388
1	0,000	108,715	1592,194
1	0,000	108,715	1592,194
1	0,000	108,765	1592,395
1	0,000	108,765	1592,496
1	0,000	108,765	1592,697
1	0,000	108,765	1592,899
1	0,000	108,765	1592,899
1	0,000	108,816	1593,100
1	0,000	108,816	1593,201
1	0,000	108,816	1593,402
1	0,000	108,816	1593,503
1	0,000	108,816	1593,604
1	0,000	108,865	1593,805
1	0,000	108,865	1593,906
1	0,000	108,865	1594,107
1	0,000	108,865	1594,208
1	0,000	108,865	1594,409
1	0,000	108,915	1594,308
1	0,000	108,915	1594,812
1	0,000	108,915	1595,013
1	0,000	108,915	1595,114
1	0,000	108,915	1595,215
1	0,000	108,965	1595,316
1	0,000	108,965	1595,517
1	0,000	108,965	1595,718
1	0,000	108,965	1595,920
1	0,000	108,965	1596,021
1	0,000	109,016	1596,121
1	0,000	109,016	1596,222
1	0,000	109,016	1596,423
1	0,000	109,016	1596,625
1	0,000	109,016	1596,625
1	0,000	109,065	1596,826
1	0,000	109,065	1597,028
1	0,000	109,065	1597,128
1	0,000	109,065	1597,229
1	0,000	109,065	1597,330
1	0,000	109,115	1597,531
1	0,000	109,115	1597,632
1	0,000	109,115	1597,833
1	0,000	109,115	1598,035
1	0,000	109,115	1598,035
1	0,000	109,166	1598,236
1	0,000	109,166	1598,337
1	0,000	109,166	1598,337
1	0,000	109,166	1598,135
1	0,000	109,166	1598,840
1	0,000	109,215	1598,941
1	0,000	109,215	1599,042
1	0,000	109,215	1599,243
1	0,000	109,215	1599,344
1	0,000	109,215	1599,646
1	0,000	109,266	1599,646
1	0,000	109,266	1599,747
1	0,000	109,266	1600,049
1	0,000	109,266	1600,049
1	0,000	109,266	1600,351
1	0,000	109,316	1600,552
1	0,000	109,316	1600,754
1	0,000	109,316	1600,854
1	0,000	109,316	1600,955
1	0,000	109,316	1601,157
1	0,000	109,366	1601,358
1	0,000	109,366	1601,459
1	0,000	109,366	1601,559
1	0,000	109,366	1601,660
1	0,000	109,366	1601,862
1	0,000	109,416	1601,962
1	0,000	109,416	1602,164
1	0,000	109,416	1602,264
1	0,000	109,416	1602,466
1	0,000	109,416	1602,567
1	0,000	109,467	1602,667
1	0,000	109,467	1602,869
1	0,000	109,467	1602,969
1	0,000	109,467	1602,969
1	0,000	109,467	1603,171
1	0,000	109,517	1603,271
1	0,000	109,517	1603,372
1	0,000	109,517	1603,574
1	0,000	109,517	1603,674
1	0,000	109,517	1603,976
1	0,000	109,567	1604,279
1	0,000	109,567	1604,379
1	0,000	109,567	1604,279
1	0,000	109,567	1604,581
1	0,000	109,567	1604,883
1	0,000	109,617	1604,984
1	0,000	109,617	1605,084
1	0,000	109,617	1605,286
1	0,000	109,617	1605,286
1	0,000	109,617	1605,286
1	0,000	109,667	1605,789
1	0,000	109,667	1605,789
1	0,000	109,667	1605,890
1	0,000	109,667	1606,091
1	0,000	109,667	1606,192
1	0,000	109,717	1606,393
1	0,000	109,717	1606,494
1	0,000	109,717	1606,696
1	0,000	109,717	1606,796
1	0,000	109,717	1606,796
1	0,000	109,768	1606,897
1	0,000	109,768	1606,998
1	0,000	109,768	1607,199
1	0,000	109,768	1607,300
1	0,000	109,768	1607,501
1	0,000	109,818	1607,501
1	0,000	109,818	1607,904
1	0,000	109,818	1607,803
1	0,000	109,818	1608,105
1	0,000	109,818	1608,206
1	0,000	109,868	1608,408
1	0,000	109,868	1608,508
1	0,000	109,868	1608,710
1	0,000	109,868	1608,911
1	0,000	109,868	1609,012
1	0,000	109,918	1609,113
1	0,000	109,918	1609,213
1	0,000	109,918	1609,515
1	0,000	109,918	1609,616
1	0,000	109,918	1609,717
1	0,000	109,968	1609,918
1	0,000	109,968	1610,019
1	0,000	109,968	1610,120
1	0,000	109,968	1610,220
1	0,000	109,968	1610,422
1	0,000	110,018	1610,623
1	0,000	110,018	1610,825
1	0,000	110,018	1610,925
1	0,000	110,018	1611,127
1	0,000	110,018	1611,227
1	0,000	110,068	1611,328
1	0,000	110,068	1611,429
1	0,000	110,068	1611,630
1	0,000	110,068	1611,630
1	0,000	110,068	1611,932
1	0,000	110,118	1611,932
1	0,000	110,118	1612,134
1	0,000	110,118	1612,335
1	0,000	110,118	1612,335
1	0,000	110,118	1612,839
1	0,000	110,168	1613,040
1	0,000	110,168	1613,040
1	0,000	110,168	1613,141
1	0,000	110,168	1613,342
1	0,000	110,168	1613,443
1	0,000	110,218	1613,544
1	0,000	110,218	1613,846
1	0,000	110,218	1613,947
1	0,000	110,218	1614,047
1	0,000	110,218	1614,249
1	0,000	110,268	1614,349
1	0,000	110,268	1614,551
1	0,000	110,268	1614,752
1	0,000	110,268	1614,853
1	0,000	110,268	1614,954
1	0,000	110,318	1615,155
1	0,000	110,318	1615,256
1	0,000	110,318	1615,558
1	0,000	110,318	1615,659
1	0,000	110,318	1615,860
1	0,000	110,368	1616,061
1	0,000	110,368	1615,961
1	0,000	110,368	1616,263
1	0,000	110,368	1616,364
1	0,000	110,368	1616,565
1	0,000	110,418	1616,666
1	0,000	110,418	1616,867
1	0,000	110,418	1617,068
1	0,000	110,418	1617,169
1	0,000	110,418	1617,371
1	0,000	110,468	1617,471
1	0,000	110,468	1617,673
1	0,000	110,468	1617,874
1	0,000	110,468	1617,975
1	0,000	110,468	1618,076
1	0,000	110,519	1618,277
1	0,000	110,519	1618,378
1	0,000	110,519	1618,579
1	0,000	110,519	1618,579
1	0,000	110,519	1618,881
1	0,000	110,569	1618,881
1	0,000	110,569	1619,183
1	0,000	110,569	1619,284
1	0,000	110,569	1619,385
1	0,000	110,569	1619,586
1	0,000	110,619	1619,788
1	0,000	110,619	1619,888
1	0,000	110,619	1619,989
1	0,000	110,619	1620,090
1	0,000	110,619	1620,291
1	0,000	110,669	1620,493
1	0,000	110,669	1620,593
1	0,000	110,669	1620,694
1	0,000	110,669	1620,895
1	0,000	110,669	1621,097
1	0,000	110,719	1621,298
1	0,000	110,719	1621,399
1	0,000	110,719	1621,600
1	0,000	110,719	1621,701
1	0,000	110,719	1621,902
1	0,000	110,769	1622,003
1	0,000	110,769	1622,104
1	0,000	110,769	1622,305
1	0,000	110,769	1622,507
1	0,000	110,769	1622,607
1	0,000	110,819	1622,708
1	0,000	110,819	1622,910
1	0,000	110,819	1623,111
1	0,000	110,819	1623,212
1	0,000	110,819	1623,413
1	0,000	110,869	1623,514
1	0,000	110,869	1623,715
1	0,000	110,869	1623,816
1	0,000	110,869	1624,017
1	0,000	110,869	1624,219
1	0,000	110,920	1624,521
1	0,000	110,920	1624,521
1	0,000	110,920	1624,722
1	0,000	110,920	1624,823
1	0,000	110,920	1625,024
1	0,000	110,970	1625,125
1	0,000	110,970	1625,327
1	0,000	110,970	1625,327
1	0,000	110,970	1625,629
1	0,000	110,970	1625,830
1	0,000	110,970	1625,931
1	0,000	111,020	1626,031
1	0,000	111,020	1626,233
1	0,000	111,020	1626,434
1	0,000	111,020	1626,434
1	0,000	111,070	1626,636
1	0,000	111,070	1626,837
1	0,000	111,070	1626,938
1	0,000	111,070	1627,240
1	0,000	111,070	1627,240
1	0,000	111,120	1627,139
1	0,000	111,120	1627,542
1	0,000	111,120	1627,643
1	0,000	111,120	1627,844
1	0,000	111,120	1628,046
1	0,000	111,170	1628,146
1	0,000	111,170	1628,247
1	0,000	111,170	1628,448
1	0,000	111,170	1628,650
1	0,000	111,170	1628,851
1	0,000	111,220	1628,952
1	0,000	111,220	1629,153
1	0,000	111,220	1629,254
1	0,000	111,220	1629,456
1	0,000	111,220	1629,556
1	0,000	111,270	1629,758
1	0,000	111,270	1629,858
1	0,000	111,270	1630,161
1	0,000	111,270	1630,261
1	0,000	111,270	1630,362
1	0,000	111,320	1630,463
1	0,000	111,320	1630,664
1	0,000	111,320	1630,765
1	0,000	111,320	1630,865
1	0,000	111,320	1631,067
1	0,000	111,370	1631,268
1	0,000	111,370	1631,369
1	0,000	111,370	1631,570
1	0,000	111,370	1631,772
1	0,000	111,370	1631,873
1	0,000	111,420	1631,973
1	0,000	111,420	1632,175
1	0,000	111,420	1632,275
1	0,000	111,420	1632,376
1	0,000	111,420	1632,779
1	0,000	111,471	1632,779
1	0,000	111,471	1632,980
1	0,000	111,471	1633,182
1	0,000	111,471	1633,282
1	0,000	111,471	1633,484
1	0,000	111,520	1633,585
1	0,000	111,520	1633,685
1	0,000	111,520	1633,786
1	0,000	111,520	1634,088
1	0,000	111,520	1634,189
1	0,000	111,570	1634,390
1	0,000	111,570	1634,491
1	0,000	111,570	1634,592
1	0,000	111,570	1634,793
1	0,000	111,570	1634,995
1	0,000	111,620	1635,095
1	0,000	111,620	1635,297
1	0,000	111,620	1635,397
1	0,000	111,620	1635,599
1	0,000	111,620	1635,599
1	0,000	111,671	1635,901
1	0,000	111,671	1636,102
1	0,000	111,671	1636,203
1	0,000	111,671	1636,404
1	0,000	111,671	1636,606
1	0,000	111,720	1636,707
1	0,000	111,720	1636,807
1	0,000	111,720	1637,009
1	0,000	111,720	1637,009
1	0,000	111,720	1637,512
1	0,000	111,770	1637,512
1	0,000	111,770	1637,613
1	0,000	111,770	1637,714
1	0,000	111,770	1637,915
1	0,000	111,770	1638,016
1	0,000	111,820	1638,116
1	0,000	111,820	1638,318
1	0,000	111,820	1638,519
1	0,000	111,820	1638,620
1	0,000	111,820	1638,821
1	0,000	111,820	1639,023
1	0,000	111,871	1639,224
1	0,000	111,871	1639,224
1	0,000	111,871	1639,426
1	0,000	111,871	1639,627
1	0,000	111,871	1639,728
1	0,000	111,921	1639,929
1	0,000	111,921	1640,030
1	0,000	111,921	1640,231
1	0,000	111,921	1640,332
1	0,000	111,921	1640,634
1	0,000	111,972	1640,936
1	0,000	111,972	1640,836
1	0,000	111,972	1641,138
1	0,000	111,972	1641,238
1	0,000	111,972	1641,440
1	0,000	112,022	1641,541
1	0,000	112,022	1641,641
1	0,000	112,022	1641,742
1	0,000	112,022	1641,843
1	0,000	112,022	1642,245
1	0,000	112,071	1642,346
1	0,000	112,071	1642,548
1	0,000	112,071	1642,648
1	0,000	112,071	1642,749
1	0,000	112,071	1642,950
1	0,000	112,122	1643,152
1	0,000	112,122	1643,253
1	0,000	112,122	1643,454
1	0,000	112,122	1643,555
1	0,000	112,122	1643,756
1	0,000	112,171	1643,857
1	0,000	112,171	1644,058
1	0,000	112,171	1644,159
1	0,000	112,171	1644,360
1	0,000	112,171	1644,562
1	0,000	112,221	1644,662
1	0,000	112,221	1644,763
1	0,000	112,221	1644,864
1	0,000	112,221	1645,166
1	0,000	112,221	1645,267
1	0,000	112,271	1645,569
1	0,000	112,271	1646,677
1	0,000	112,271	1645,670
1	0,000	112,271	1647,885
1	0,000	112,271	1646,274
1	0,000	112,322	1646,173
1	0,000	112,322	1646,375
1	0,000	112,322	1646,576
1	0,000	112,322	1646,576
1	0,000	112,322	1646,979
1	0,000	112,371	1647,180
1	0,000	112,371	1647,180
1	0,000	112,371	1647,382
1	0,000	112,371	1647,583
1	0,000	112,371	1647,684
1	0,000	112,421	1647,885
1	0,000	112,421	1647,986
1	0,000	112,421	1648,087
1	0,000	112,421	1648,288
1	0,000	112,471	1648,590
1	0,000	112,471	1648,590
1	0,000	112,471	1648,892
1	0,000	112,471	1648,993
1	0,000	112,471	1649,094
1	0,000	112,471	1649,194
1	0,000	112,521	1649,396
1	0,000	112,521	1649,597
1	0,000	112,521	1649,698
1	0,000	112,521	1649,799
1	0,000	112,521	1650,000
1	0,000	112,572	1650,201
1	0,000	112,572	1650,403
1	0,000	112,572	1650,504
1	0,000	112,572	1650,705
1	0,000	112,622	1650,906
1	0,000	112,622	1651,007
1	0,000	112,622	1651,208
1	0,000	112,622	1651,410
1	0,000	112,622	1651,611
1	0,000	112,622	1651,712
1	0,000	112,672	1651,913
1	0,000	112,672	1652,014
1	0,000	112,672	1652,316
1	0,000	112,672	1652,316
1	0,000	112,672	1652,518
1	0,000	112,722	1652,719
1	0,000	112,722	1652,719
1	0,000	112,722	1653,122
1	0,000	112,722	1653,223
1	0,000	112,722	1653,323
1	0,000	112,772	1653,424
1	0,000	112,772	1653,625
1	0,000	112,772	1653,827
1	0,000	112,772	1653,928
1	0,000	112,772	1654,129
1	0,000	112,822	1654,330
1	0,000	112,822	1654,129
1	0,000	112,822	1654,733
1	0,000	112,822	1654,834
1	0,000	112,822	1654,834
1	0,000	112,873	1655,136
1	0,000	112,873	1655,237
1	0,000	112,873	1655,438
1	0,000	112,873	1655,539
1	0,000	112,873	1655,740
1	0,000	112,923	1655,841
1	0,000	112,923	1656,042
1	0,000	112,923	1656,143
1	0,000	112,923	1656,345
1	0,000	112,923	1656,445
1	0,000	112,973	1656,647
1	0,000	112,973	1656,747
1	0,000	112,973	1656,747
1	0,000	112,973	1657,050
1	0,000	112,973	1657,251
1	0,000	113,023	1657,452
1	0,000	113,023	1657,553
1	0,000	113,023	1657,755
1	0,000	113,023	1657,956
1	0,000	113,023	1658,057
1	0,000	113,073	1658,258
1	0,000	113,073	1658,459
1	0,000	113,073	1658,661
1	0,000	113,073	1658,762
1	0,000	113,073	1658,862
1	0,000	113,124	1659,064
1	0,000	113,124	1659,164
1	0,000	113,124	1659,366
1	0,000	113,124	1659,467
1	0,000	113,124	1659,668
1	0,000	113,174	1659,869
1	0,000	113,174	1659,970
1	0,000	113,174	1659,970
1	0,000	113,174	1660,272
1	0,000	113,174	1660,474
1	0,000	113,224	1660,675
1	0,000	113,224	1660,876
1	0,000	113,224	1660,977
1	0,000	113,224	1661,179
1	0,000	113,224	1661,279
1	0,000	113,273	1661,380
1	0,000	113,273	1661,682
1	0,000	113,273	1661,783
1	0,000	113,273	1661,884
1	0,000	113,273	1662,085
1	0,000	113,323	1662,286
1	0,000	113,323	1662,488
1	0,000	113,323	1662,589
1	0,000	113,323	1662,891
1	0,000	113,323	1662,891
1	0,000	113,374	1663,193
1	0,000	113,374	1663,293
1	0,000	113,374	1663,495
1	0,000	113,374	1663,596
1	0,000	113,374	1663,696
1	0,000	113,424	1663,898
1	0,000	113,424	1664,099
1	0,000	113,424	1664,200
1	0,000	113,424	1664,401
1	0,000	113,424	1664,603
1	0,000	113,473	1664,703
1	0,000	113,473	1664,905
1	0,000	113,473	1665,106
1	0,000	113,473	1665,207
1	0,000	113,473	1665,408
1	0,000	113,524	1665,509
1	0,000	113,524	1665,710
1	0,000	113,524	1665,811
1	0,000	113,524	1666,013
1	0,000	113,524	1666,214
1	0,000	113,574	1666,415
1	0,000	113,574	1666,617
1	0,000	113,574	1666,718
1	0,000	113,574	1666,919
1	0,000	113,574	1667,120
1	0,000	113,624	1667,322
1	0,000	113,624	1667,422
1	0,000	113,624	1667,523
1	0,000	113,624	1667,725
1	0,000	113,624	1667,825
1	0,000	113,674	1667,926
1	0,000	113,674	1668,127
1	0,000	113,674	1668,329
1	0,000	113,674	1668,430
1	0,000	113,674	1668,631
1	0,000	113,724	1668,631
1	0,000	113,724	1668,933
1	0,000	113,724	1669,135
1	0,000	113,724	1669,235
1	0,000	113,724	1669,437
1	0,000	113,774	1669,537
1	0,000	113,774	1669,839
1	0,000	113,774	1669,940
1	0,000	113,774	1670,041
1	0,000	113,774	1670,242
1	0,000	113,824	1670,444
1	0,000	113,824	1670,544
1	0,000	113,824	1670,746
1	0,000	113,824	1670,947
1	0,000	113,824	1671,048
1	0,000	113,874	1671,149
1	0,000	113,874	1671,350
1	0,000	113,874	1671,652
1	0,000	113,874	1671,652
1	0,000	113,874	1671,854
1	0,000	113,925	1672,055
1	0,000	113,925	1672,256
1	0,000	113,925	1672,357
1	0,000	113,925	1672,559
1	0,000	113,925	1672,659
1	0,000	113,975	1672,861
1	0,000	113,975	1673,062
1	0,000	113,975	1673,163
1	0,000	113,975	1673,364
1	0,000	113,975	1673,566
1	0,000	114,025	1673,465
1	0,000	114,025	1673,666
1	0,000	114,025	1674,170
1	0,000	114,025	1674,170
1	0,000	114,025	1674,371
1	0,000	114,076	1674,472
1	0,000	114,076	1674,673
1	0,000	114,076	1674,875
1	0,000	114,076	1675,076
1	0,000	114,076	1675,177
1	0,000	114,126	1675,378
1	0,000	114,126	1675,479
1	0,000	114,126	1675,681
1	0,000	114,126	1675,882
1	0,000	114,126	1676,083
1	0,000	114,176	1676,083
1	0,000	114,176	1676,285
1	0,000	114,176	1676,486
1	0,000	114,176	1676,688
1	0,000	114,176	1676,788
1	0,000	114,226	1676,990
1	0,000	114,226	1677,191
1	0,000	114,226	1677,393
1	0,000	114,226	1677,594
1	0,000	114,226	1677,594
1	0,000	114,276	1677,795
1	0,000	114,276	1677,997
1	0,000	114,276	1678,299
1	0,000	114,276	1678,400
1	0,000	114,276	1678,400
1	0,000	114,326	1678,702
1	0,000	114,326	1678,702
1	0,000	114,326	1679,004
1	0,000	114,326	1679,105
1	0,000	114,326	1679,205
1	0,000	114,376	1679,407
1	0,000	114,376	1679,608
1	0,000	114,376	1679,810
1	0,000	114,376	1679,910
1	0,000	114,376	1680,212
1	0,000	114,426	1680,313
1	0,000	114,426	1680,414
1	0,000	114,426	1680,615
1	0,000	114,426	1680,716
1	0,000	114,426	1680,917
1	0,000	114,476	1681,018
1	0,000	114,476	1681,219
1	0,000	114,476	1681,320
1	0,000	114,476	1681,522
1	0,000	114,476	1681,723
1	0,000	114,526	1681,824
1	0,000	114,526	1682,025
1	0,000	114,526	1682,227
1	0,000	114,526	1682,327
1	0,000	114,526	1682,529
1	0,000	114,576	1682,629
1	0,000	114,576	1682,831
1	0,000	114,576	1683,133
1	0,000	114,576	1683,234
1	0,000	114,576	1683,435
1	0,000	114,626	1683,536
1	0,000	114,626	1683,737
1	0,000	114,626	1683,939
1	0,000	114,626	1684,039
1	0,000	114,626	1684,241
1	0,000	114,677	1684,341
1	0,000	114,677	1684,241
1	0,000	114,677	1684,543
1	0,000	114,677	1684,845
1	0,000	114,677	1685,147
1	0,000	114,726	1685,248
1	0,000	114,726	1685,449
1	0,000	114,726	1685,550
1	0,000	114,726	1685,852
1	0,000	114,726	1685,953
1	0,000	114,777	1686,053
1	0,000	114,777	1686,255
1	0,000	114,777	1686,356
1	0,000	114,777	1686,557
1	0,000	114,777	1686,758
1	0,000	114,827	1686,960
1	0,000	114,827	1687,161
1	0,000	114,827	1687,363
1	0,000	114,827	1687,262
1	0,000	114,827	1687,665
1	0,000	114,877	1687,866
1	0,000	114,877	1687,866
1	0,000	114,877	1688,168
1	0,000	114,877	1688,269
1	0,000	114,877	1688,470
1	0,000	114,926	1688,571
1	0,000	114,926	1688,773
1	0,000	114,926	1688,974
1	0,000	114,926	1689,075
1	0,000	114,926	1689,276
1	0,000	114,977	1689,377
1	0,000	114,977	1689,578
1	0,000	114,977	1689,780
1	0,000	114,977	1689,981
1	0,000	114,977	1690,182
1	0,000	115,027	1690,384
1	0,000	115,027	1690,585
1	0,000	115,027	1690,585
1	0,000	115,027	1690,787
1	0,000	115,027	1690,988
1	0,000	115,077	1691,089
1	0,000	115,077	1691,290
1	0,000	115,077	1691,492
1	0,000	115,077	1691,693
1	0,000	115,077	1691,794
1	0,000	115,127	1691,895
1	0,000	115,127	1692,197
1	0,000	115,127	1692,096
1	0,000	115,127	1692,297
1	0,000	115,127	1692,700
1	0,000	115,177	1692,902
1	0,000	115,177	1693,002
1	0,000	115,177	1693,204
1	0,000	115,177	1693,304
1	0,000	115,177	1693,405
1	0,000	115,227	1693,607
1	0,000	115,227	1693,808
1	0,000	115,227	1694,009
1	0,000	115,227	1694,110
1	0,000	115,227	1694,412
1	0,000	115,277	1694,513
1	0,000	115,277	1694,714
1	0,000	115,277	1694,916
1	0,000	115,277	1695,016
1	0,000	115,277	1695,016
1	0,000	115,327	1695,419
1	0,000	115,327	1695,621
1	0,000	115,327	1695,721
1	0,000	115,327	1695,822
1	0,000	115,327	1696,024
1	0,000	115,378	1696,124
1	0,000	115,378	1696,426
1	0,000	115,378	1696,527
1	0,000	115,378	1696,729
1	0,000	115,378	1696,829
1	0,000	115,428	1697,031
1	0,000	115,428	1697,131
1	0,000	115,428	1697,333
1	0,000	115,428	1697,534
1	0,000	115,428	1697,736
1	0,000	115,478	1697,937
1	0,000	115,478	1698,138
1	0,000	115,478	1698,239
1	0,000	115,478	1698,340
1	0,000	115,478	1698,541
1	0,000	115,528	1698,743
1	0,000	115,528	1698,944
1	0,000	115,528	1699,045
1	0,000	115,528	1699,246
1	0,000	115,528	1699,347
1	0,000	115,578	1699,548
1	0,000	115,578	1699,649
1	0,000	115,578	1699,850
1	0,000	115,578	1699,951
1	0,000	115,578	1699,951
1	0,000	115,628	1700,555
1	0,000	115,628	1700,656
1	0,000	115,628	1700,656
1	0,000	115,628	1700,958
1	0,000	115,628	1701,160
1	0,000	115,679	1701,260
1	0,000	115,679	1701,462
1	0,000	115,679	1701,865
1	0,000	115,679	1701,965
1	0,000	115,679	1702,066
1	0,000	115,728	1702,167
1	0,000	115,728	1702,368
1	0,000	115,728	1702,570
1	0,000	115,728	1702,469
1	0,000	115,728	1702,771
1	0,000	115,779	1703,073
1	0,000	115,779	1703,174
1	0,000	115,779	1703,375
1	0,000	115,779	1703,476
1	0,000	115,779	1703,677
1	0,000	115,828	1703,879
1	0,000	115,828	1703,979
1	0,000	115,828	1704,181
1	0,000	115,828	1704,282
1	0,000	115,828	1704,483
1	0,000	115,878	1704,684
1	0,000	115,878	1704,785
1	0,000	115,878	1704,987
1	0,000	115,878	1705,087
1	0,000	115,878	1705,389
1	0,000	115,928	1705,490
1	0,000	115,928	1705,591
1	0,000	115,928	1705,792
1	0,000	115,928	1705,994
1	0,000	115,928	1706,195
1	0,000	115,978	1706,296
1	0,000	115,978	1706,497
1	0,000	115,978	1706,699
1	0,000	115,978	1706,900
1	0,000	115,978	1707,001
1	0,000	116,028	1707,202
1	0,000	116,028	1707,404
1	0,000	116,028	1707,605
1	0,000	116,028	1707,605
1	0,000	116,028	1707,907
1	0,000	116,078	1708,109
1	0,000	116,078	1708,209
1	0,000	116,078	1708,511
1	0,000	116,078	1708,511
1	0,000	116,078	1708,713
1	0,000	116,128	1708,914
1	0,000	116,128	1709,116
1	0,000	116,128	1709,216
1	0,000	116,128	1709,418
1	0,000	116,128	1709,720
1	0,000	116,178	1709,821
1	0,000	116,178	1710,022
1	0,000	116,178	1710,123
1	0,000	116,178	1710,223
1	0,000	116,178	1710,425
1	0,000	116,228	1710,626
1	0,000	116,228	1710,828
1	0,000	116,228	1710,928
1	0,000	116,228	1711,130
1	0,000	116,228	1711,331
1	0,000	116,278	1711,432
1	0,000	116,278	1711,633
1	0,000	116,278	1711,835
1	0,000	116,278	1712,036
1	0,000	116,278	1712,238
1	0,000	116,328	1712,338
1	0,000	116,328	1712,540
1	0,000	116,328	1712,741
1	0,000	116,328	1713,144
1	0,000	116,328	1713,043
1	0,000	116,379	1713,345
1	0,000	116,379	1713,446
1	0,000	116,379	1713,043
1	0,000	116,379	1714,352
1	0,000	116,379	1713,950
1	0,000	116,379	1714,050
1	0,000	116,428	1714,050
1	0,000	116,428	1714,554
1	0,000	116,428	1714,655
1	0,000	116,428	1714,755
1	0,000	116,428	1714,957
1	0,000	116,479	1715,158
1	0,000	116,479	1715,259
1	0,000	116,479	1715,460
1	0,000	116,479	1715,561
1	0,000	116,529	1715,863
1	0,000	116,529	1715,964
1	0,000	116,529	1716,064
1	0,000	116,529	1716,266
1	0,000	116,529	1716,568
1	0,000	116,579	1716,669
1	0,000	116,579	1716,870
1	0,000	116,579	1717,072
1	0,000	116,579	1717,172
1	0,000	116,579	1717,374
1	0,000	116,628	1717,575
1	0,000	116,628	1717,676
1	0,000	116,628	1717,978
1	0,000	116,628	1717,978
1	0,000	116,628	1718,179
1	0,000	116,628	1718,381
1	0,000	116,679	1718,582
1	0,000	116,679	1718,683
1	0,000	116,679	1718,985
1	0,000	116,679	1719,186
1	0,000	116,679	1719,287
1	0,000	116,730	1719,388
1	0,000	116,730	1719,589
1	0,000	116,730	1719,791
1	0,000	116,730	1719,992
1	0,000	116,780	1720,093
1	0,000	116,780	1720,294
1	0,000	116,780	1720,496
1	0,000	116,780	1720,697
1	0,000	116,780	1720,798
1	0,000	116,780	1720,999
1	0,000	116,830	1721,100
1	0,000	116,830	1721,301
1	0,000	116,830	1721,503
1	0,000	116,830	1721,603
1	0,000	116,830	1721,906
1	0,000	116,881	1722,006
1	0,000	116,881	1722,208
1	0,000	116,881	1722,409
1	0,000	116,881	1722,510
1	0,000	116,881	1722,711
1	0,000	116,930	1723,013
1	0,000	116,930	1723,114
1	0,000	116,930	1723,215
1	0,000	116,930	1723,416
1	0,000	116,930	1723,618
1	0,000	116,981	1723,819
1	0,000	116,981	1724,020
1	0,000	116,981	1724,121
1	0,000	116,981	1724,323
1	0,000	116,981	1724,423
1	0,000	117,031	1724,524
1	0,000	117,031	1724,524
1	0,000	117,031	1725,027
1	0,000	117,031	1725,229
1	0,000	117,031	1725,330
1	0,000	117,081	1725,531
1	0,000	117,081	1725,632
1	0,000	117,081	1725,833
1	0,000	117,081	1725,732
1	0,000	117,081	1726,236
1	0,000	117,131	1726,437
1	0,000	117,131	1726,639
1	0,000	117,131	1726,740
1	0,000	117,131	1726,941
1	0,000	117,131	1727,042
1	0,000	117,181	1727,243
1	0,000	117,181	1727,444
1	0,000	117,181	1727,646
1	0,000	117,181	1727,747
1	0,000	117,181	1727,948
1	0,000	117,231	1728,149
1	0,000	117,231	1728,351
1	0,000	117,231	1728,552
1	0,000	117,231	1728,754
1	0,000	117,231	1728,955
1	0,000	117,281	1729,056
1	0,000	117,281	1729,257
1	0,000	117,281	1729,358
1	0,000	117,281	1729,559
1	0,000	117,281	1729,761
1	0,000	117,331	1729,861
1	0,000	117,331	1730,063
1	0,000	117,331	1730,264
1	0,000	117,331	1730,466
1	0,000	117,331	1730,566
1	0,000	117,381	1730,869
1	0,000	117,381	1730,969
1	0,000	117,381	1731,171
1	0,000	117,381	1730,969
1	0,000	117,381	1731,573
1	0,000	117,431	1731,674
1	0,000	117,431	1731,876
1	0,000	117,431	1732,077
1	0,000	117,431	1732,278
1	0,000	117,431	1732,480
1	0,000	117,482	1732,581
1	0,000	117,482	1732,782
1	0,000	117,482	1732,983
1	0,000	117,482	1733,084
1	0,000	117,482	1733,386
1	0,000	117,533	1733,487
1	0,000	117,533	1733,588
1	0,000	117,533	1733,789
1	0,000	117,533	1733,990
1	0,000	117,533	1734,293
1	0,000	117,583	1734,393
1	0,000	117,583	1734,595
1	0,000	117,583	1734,796
1	0,000	117,583	1734,998
1	0,000	117,583	1735,199
1	0,000	117,634	1735,400
1	0,000	117,634	1735,501
1	0,000	117,634	1735,602
1	0,000	117,634	1735,803
1	0,000	117,634	1736,005
1	0,000	117,684	1736,206
1	0,000	117,684	1736,307
1	0,000	117,684	1736,407
1	0,000	117,684	1736,710
1	0,000	117,684	1736,911
1	0,000	117,734	1737,112
1	0,000	117,734	1737,213
1	0,000	117,734	1737,515
1	0,000	117,734	1737,717
1	0,000	117,734	1737,817
1	0,000	117,785	1738,019
1	0,000	117,785	1738,120
1	0,000	117,785	1738,321
1	0,000	117,785	1738,422
1	0,000	117,785	1738,724
1	0,000	117,834	1738,824
1	0,000	117,834	1739,026
1	0,000	117,834	1739,227
1	0,000	117,834	1739,429
1	0,000	117,834	1739,630
1	0,000	117,884	1739,731
1	0,000	117,884	1739,932
1	0,000	117,884	1739,932
1	0,000	117,884	1740,335
1	0,000	117,884	1740,536
1	0,000	117,934	1740,637
1	0,000	117,934	1740,939
1	0,000	117,934	1741,040
1	0,000	117,934	1741,241
1	0,000	117,934	1741,443
1	0,000	117,985	1741,644
1	0,000	117,985	1741,846
1	0,000	117,985	1741,846
1	0,000	117,985	1742,148
1	0,000	117,985	1742,249
1	0,000	118,034	1742,450
1	0,000	118,034	1742,651
1	0,000	118,034	1742,853
1	0,000	118,034	1742,953
1	0,000	118,034	1743,155
1	0,000	118,084	1743,356
1	0,000	118,084	1743,558
1	0,000	118,084	1743,759
1	0,000	118,084	1743,961
1	0,000	118,084	1744,263
1	0,000	118,135	1744,263
1	0,000	118,135	1744,464
1	0,000	118,135	1744,666
1	0,000	118,135	1744,867
1	0,000	118,135	1745,068
1	0,000	118,184	1745,169
1	0,000	118,184	1745,370
1	0,000	118,184	1745,471
1	0,000	118,184	1745,773
1	0,000	118,184	1745,874
1	0,000	118,235	1746,075
1	0,000	118,235	1746,378
1	0,000	118,235	1746,478
1	0,000	118,235	1746,680
1	0,000	118,235	1746,780
1	0,000	118,285	1746,982
1	0,000	118,285	1747,183
1	0,000	118,285	1747,485
1	0,000	118,285	1747,687
1	0,000	118,285	1747,586
1	0,000	118,335	1747,989
1	0,000	118,335	1748,190
1	0,000	118,335	1748,392
1	0,000	118,335	1748,593
1	0,000	118,335	1748,694
1	0,000	118,385	1748,795
1	0,000	118,385	1749,097
1	0,000	118,385	1749,197
1	0,000	118,385	1749,600
1	0,000	118,385	1749,701
1	0,000	118,435	1749,902
1	0,000	118,435	1749,902
1	0,000	118,435	1750,003
1	0,000	118,435	1750,305
1	0,000	118,435	1750,104
1	0,000	118,485	1750,607
1	0,000	118,485	1750,809
1	0,000	118,485	1751,010
1	0,000	118,485	1751,212
1	0,000	118,485	1751,413
1	0,000	118,535	1751,514
1	0,000	118,535	1751,614
1	0,000	118,535	1751,917
1	0,000	118,535	1751,917
1	0,000	118,535	1752,319
1	0,000	118,585	1752,420
1	0,000	118,585	1752,621
1	0,000	118,585	1752,823
1	0,000	118,585	1752,924
1	0,000	118,585	1753,125
1	0,000	118,635	1753,326
1	0,000	118,635	1753,528
1	0,000	118,635	1753,830
1	0,000	118,635	1754,031
1	0,000	118,635	1754,031
1	0,000	118,686	1754,132
1	0,000	118,686	1754,132
1	0,000	118,686	1754,535
1	0,000	118,686	1754,736
1	0,000	118,686	1754,938
1	0,000	118,735	1755,038
1	0,000	118,735	1755,341
1	0,000	118,735	1755,441
1	0,000	118,735	1755,643
1	0,000	118,735	1755,844
1	0,000	118,786	1755,945
1	0,000	118,786	1756,247
1	0,000	118,786	1756,348
1	0,000	118,786	1756,549
1	0,000	118,786	1756,750
1	0,000	118,836	1756,851
1	0,000	118,836	1757,053
1	0,000	118,836	1757,355
1	0,000	118,836	1757,556
1	0,000	118,836	1757,657
1	0,000	118,886	1757,858
1	0,000	118,886	1757,959
1	0,000	118,886	1758,160
1	0,000	118,886	1758,362
1	0,000	118,886	1758,563
1	0,000	118,936	1758,765
1	0,000	118,936	1758,865
1	0,000	118,936	1759,067
1	0,000	118,936	1759,268
1	0,000	118,936	1759,470
1	0,000	118,986	1759,671
1	0,000	118,986	1759,671
1	0,000	118,986	1760,175
1	0,000	118,986	1760,175
1	0,000	118,986	1760,376
1	0,000	119,037	1760,577
1	0,000	119,037	1760,779
1	0,000	119,037	1760,980
1	0,000	119,037	1761,182
1	0,000	119,037	1761,383
1	0,000	119,086	1761,484
1	0,000	119,086	1761,584
1	0,000	119,086	1761,786
1	0,000	119,086	1762,189
1	0,000	119,086	1762,289
1	0,000	119,137	1762,390
1	0,000	119,137	1762,592
1	0,000	119,137	1762,692
1	0,000	119,137	1762,894
1	0,000	119,137	1763,095
1	0,000	119,186	1763,297
1	0,000	119,186	1763,498
1	0,000	119,186	1763,699
1	0,000	119,186	1763,599
1	0,000	119,186	1764,102
1	0,000	119,236	1764,203
1	0,000	119,236	1764,505
1	0,000	119,236	1764,606
1	0,000	119,236	1764,706
1	0,000	119,236	1765,009
1	0,000	119,286	1765,109
1	0,000	119,286	1765,311
1	0,000	119,286	1765,210
1	0,000	119,286	1765,814
1	0,000	119,286	1765,915
1	0,000	119,336	1766,016
1	0,000	119,336	1766,318
1	0,000	119,336	1766,418
1	0,000	119,336	1766,620
1	0,000	119,336	1766,821
1	0,000	119,386	1767,023
1	0,000	119,386	1767,224
1	0,000	119,386	1767,325
1	0,000	119,386	1767,526
1	0,000	119,386	1767,728
1	0,000	119,436	1767,929
1	0,000	119,436	1768,130
1	0,000	119,436	1768,130
1	0,000	119,436	1768,433
1	0,000	119,436	1768,634
1	0,000	119,487	1768,735
1	0,000	119,487	1769,037
1	0,000	119,487	1769,238
1	0,000	119,487	1769,339
1	0,000	119,487	1769,440
1	0,000	119,537	1769,742
1	0,000	119,537	1769,943
1	0,000	119,537	1770,145
1	0,000	119,537	1770,245
1	0,000	119,537	1770,447
1	0,000	119,586	1770,648
1	0,000	119,586	1770,850
1	0,000	119,586	1771,051
1	0,000	119,586	1771,252
1	0,000	119,586	1771,353
1	0,000	119,586	1771,555
1	0,000	119,637	1771,756
1	0,000	119,637	1771,857
1	0,000	119,637	1772,159
1	0,000	119,637	1772,260
1	0,000	119,688	1772,562
1	0,000	119,688	1772,763
1	0,000	119,688	1772,864
1	0,000	119,688	1773,065
1	0,000	119,688	1773,267
1	0,000	119,688	1773,367
1	0,000	119,738	1773,569
1	0,000	119,738	1773,770
1	0,000	119,738	1773,972
1	0,000	119,738	1774,173
1	0,000	119,788	1774,374
1	0,000	119,788	1774,475
1	0,000	119,788	1774,677
1	0,000	119,788	1774,878
1	0,000	119,788	1775,079
1	0,000	119,788	1775,281
1	0,000	119,838	1775,482
1	0,000	119,838	1775,583
1	0,000	119,838	1775,784
1	0,000	119,838	1775,986
1	0,000	119,838	1776,187
1	0,000	119,888	1776,389
1	0,000	119,888	1776,590
1	0,000	119,888	1776,791
1	0,000	119,888	1777,094
1	0,000	119,888	1777,295
1	0,000	119,938	1777,295
1	0,000	119,938	1777,496
1	0,000	119,938	1777,597
1	0,000	119,938	1777,899
1	0,000	119,938	1778,101
1	0,000	119,989	1778,201
1	0,000	119,989	1778,503
1	0,000	119,989	1778,705
1	0,000	119,989	1778,806
1	0,000	119,989	1779,007
1	0,000	120,039	1779,108
1	0,000	120,039	1779,309
1	0,000	120,039	1779,611
1	0,000	120,039	1779,712
1	0,000	120,039	1779,913
1	0,000	120,089	1780,115
1	0,000	120,089	1780,215
1	0,000	120,089	1780,417
1	0,000	120,089	1780,618
1	0,000	120,089	1780,820
1	0,000	120,139	1781,021
1	0,000	120,139	1781,223
1	0,000	120,139	1781,323
1	0,000	120,139	1781,525
1	0,000	120,139	1781,726
1	0,000	120,190	1781,927
1	0,000	120,190	1782,129
1	0,000	120,190	1782,330
1	0,000	120,190	1782,532
1	0,000	120,190	1782,733
1	0,000	120,240	1782,834
1	0,000	120,240	1783,035
1	0,000	120,240	1783,237
1	0,000	120,240	1783,438
1	0,000	120,240	1783,539
1	0,000	120,290	1783,740
1	0,000	120,290	1784,244
1	0,000	120,290	1784,143
1	0,000	120,290	1784,445
1	0,000	120,290	1784,546
1	0,000	120,340	1784,747
1	0,000	120,340	1785,049
1	0,000	120,340	1785,049
1	0,000	120,340	1785,352
1	0,000	120,340	1785,452
1	0,000	120,390	1785,754
1	0,000	120,390	1785,855
1	0,000	120,390	1786,057
1	0,000	120,390	1786,258
1	0,000	120,390	1786,359
1	0,000	120,440	1786,661
1	0,000	120,440	1786,761
1	0,000	120,440	1787,064
1	0,000	120,440	1787,265
1	0,000	120,440	1787,366
1	0,000	120,490	1787,567
1	0,000	120,490	1787,769
1	0,000	120,490	1787,970
1	0,000	120,490	1788,171
1	0,000	120,490	1788,373
1	0,000	120,540	1788,574
1	0,000	120,540	1788,675
1	0,000	120,540	1788,373
1	0,000	120,540	1789,078
1	0,000	120,540	1789,380
1	0,000	120,590	1789,481
1	0,000	120,590	1789,682
1	0,000	120,590	1789,783
1	0,000	120,590	1790,085
1	0,000	120,590	1790,286
1	0,000	120,640	1790,488
1	0,000	120,640	1790,588
1	0,000	120,640	1790,790
1	0,000	120,640	1790,991
1	0,000	120,640	1791,193
1	0,000	120,690	1791,193
1	0,000	120,690	1791,595
1	0,000	120,690	1791,696
1	0,000	120,690	1791,898
1	0,000	120,690	1792,099
1	0,000	120,740	1792,300
1	0,000	120,740	1792,502
1	0,000	120,740	1792,703
1	0,000	120,740	1792,905
1	0,000	120,740	1793,005
1	0,000	120,790	1793,207
1	0,000	120,790	1793,408
1	0,000	120,790	1793,610
1	0,000	120,790	1793,811
1	0,000	120,790	1794,012
1	0,000	120,840	1794,214
1	0,000	120,840	1794,415
1	0,000	120,840	1794,617
1	0,000	120,840	1794,717
1	0,000	120,840	1794,919
1	0,000	120,890	1795,221
1	0,000	120,890	1795,322
1	0,000	120,890	1795,523
1	0,000	120,890	1795,724
1	0,000	120,890	1795,825
1	0,000	120,941	1796,027
1	0,000	120,941	1796,228
1	0,000	120,941	1796,429
1	0,000	120,941	1796,631
1	0,000	120,941	1796,832
1	0,000	120,990	1797,034
1	0,000	120,990	1797,134
1	0,000	120,990	1797,437
1	0,000	120,990	1797,537
1	0,000	120,990	1797,839
1	0,000	121,041	1798,041
1	0,000	121,041	1798,242
1	0,000	121,041	1798,343
1	0,000	121,041	1798,544
1	0,000	121,041	1798,846
1	0,000	121,091	1798,947
1	0,000	121,091	1799,149
1	0,000	121,091	1799,249
1	0,000	121,091	1799,451
1	0,000	121,091	1799,753
1	0,000	121,141	1799,854
1	0,000	121,141	1800,156
1	0,000	121,141	1800,256
1	0,000	121,141	1800,458
1	0,000	121,141	1800,659
1	0,000	121,192	1800,861
1	0,000	121,192	1801,062
1	0,000	121,192	1801,263
1	0,000	121,192	1801,263
1	0,000	121,192	1801,566
1	0,000	121,241	1801,868
1	0,000	121,241	1801,968
1	0,000	121,241	1802,170
1	0,000	121,241	1802,472
1	0,000	121,241	1802,573
1	0,000	121,292	1802,875
1	0,000	121,292	1802,975
1	0,000	121,292	1802,975
1	0,000	121,292	1803,278
1	0,000	121,292	1803,580
1	0,000	121,342	1803,680
1	0,000	121,342	1803,882
1	0,000	121,342	1804,083
1	0,000	121,342	1804,285
1	0,000	121,342	1804,385
1	0,000	121,392	1804,687
1	0,000	121,392	1804,788
1	0,000	121,392	1805,090
1	0,000	121,392	1805,191
1	0,000	121,392	1805,493
1	0,000	121,442	1805,594
1	0,000	121,442	1805,896
1	0,000	121,442	1806,097
1	0,000	121,442	1806,198
1	0,000	121,442	1806,400
1	0,000	121,492	1806,601
1	0,000	121,492	1806,802
1	0,000	121,492	1806,903
1	0,000	121,492	1807,104
1	0,000	121,492	1807,407
1	0,000	121,542	1807,507
1	0,000	121,542	1807,709
1	0,000	121,542	1807,809
1	0,000	121,542	1808,112
1	0,000	121,542	1808,212
1	0,000	121,592	1808,514
1	0,000	121,592	1808,716
1	0,000	121,592	1808,917
1	0,000	121,592	1809,119
1	0,000	121,592	1809,320
1	0,000	121,642	1809,421
1	0,000	121,642	1809,622
1	0,000	121,642	1809,824
1	0,000	121,642	1810,025
1	0,000	121,642	1810,226
1	0,000	121,692	1810,327
1	0,000	121,692	1810,730
1	0,000	121,692	1810,730
1	0,000	121,692	1810,931
1	0,000	121,692	1811,234
1	0,000	121,742	1811,334
1	0,000	121,742	1811,536
1	0,000	121,742	1811,737
1	0,000	121,742	1811,938
1	0,000	121,742	1812,039
1	0,000	121,793	1812,241
1	0,000	121,793	1812,341
1	0,000	121,793	1812,744
1	0,000	121,793	1812,845
1	0,000	121,793	1813,147
1	0,000	121,843	1813,348
1	0,000	121,843	1813,651
1	0,000	121,843	1813,651
1	0,000	121,843	1813,852
1	0,000	121,843	1814,053
1	0,000	121,892	1814,255
1	0,000	121,892	1814,557
1	0,000	121,892	1814,658
1	0,000	121,892	1814,859
1	0,000	121,892	1815,060
1	0,000	121,942	1815,262
1	0,000	121,942	1815,463
1	0,000	121,942	1815,463
1	0,000	121,942	1815,765
1	0,000	121,942	1816,068
1	0,000	121,993	1816,168
1	0,000	121,993	1816,370
1	0,000	121,993	1816,571
1	0,000	121,993	1816,772
1	0,000	121,993	1816,974
1	0,000	122,043	1817,175
1	0,000	122,043	1817,377
1	0,000	122,043	1817,578
1	0,000	122,043	1817,780
1	0,000	122,043	1817,981
1	0,000	122,093	1818,182
1	0,000	122,093	1818,384
1	0,000	122,093	1818,585
1	0,000	122,093	1818,988
1	0,000	122,093	1819,189
1	0,000	122,144	1819,189
1	0,000	122,144	1819,189
1	0,000	122,144	1819,592
1	0,000	122,144	1819,794
1	0,000	122,144	1819,894
1	0,000	122,194	1820,096
1	0,000	122,194	1820,297
1	0,000	122,194	1820,499
1	0,000	122,194	1820,599
1	0,000	122,194	1820,901
1	0,000	122,243	1821,103
1	0,000	122,243	1821,304
1	0,000	122,243	1821,506
1	0,000	122,243	1821,606
1	0,000	122,243	1821,606
1	0,000	122,293	1821,909
1	0,000	122,293	1822,311
1	0,000	122,293	1822,513
1	0,000	122,293	1822,714
1	0,000	122,293	1822,916
1	0,000	122,344	1823,016
1	0,000	122,344	1823,218
1	0,000	122,344	1823,419
1	0,000	122,344	1823,621
1	0,000	122,344	1823,822
1	0,000	122,394	1823,923
1	0,000	122,394	1824,225
1	0,000	122,394	1824,326
1	0,000	122,394	1824,628
1	0,000	122,394	1824,829
1	0,000	122,443	1824,930
1	0,000	122,443	1825,131
1	0,000	122,443	1825,333
1	0,000	122,443	1825,534
1	0,000	122,443	1825,735
1	0,000	122,494	1825,937
1	0,000	122,494	1826,138
1	0,000	122,494	1826,340
1	0,000	122,494	1826,541
1	0,000	122,494	1826,743
1	0,000	122,544	1826,944
1	0,000	122,544	1827,045
1	0,000	122,544	1827,347
1	0,000	122,544	1827,548
1	0,000	122,544	1827,649
1	0,000	122,594	1827,850
1	0,000	122,594	1828,052
1	0,000	122,594	1828,253
1	0,000	122,594	1828,455
1	0,000	122,594	1828,656
1	0,000	122,644	1828,857
1	0,000	122,644	1829,059
1	0,000	122,644	1829,361
1	0,000	122,644	1829,562
1	0,000	122,644	1829,663
1	0,000	122,694	1829,865
1	0,000	122,694	1830,066
1	0,000	122,694	1830,368
1	0,000	122,694	1830,469
1	0,000	122,694	1830,872
1	0,000	122,744	1830,872
1	0,000	122,744	1831,073
1	0,000	122,744	1831,274
1	0,000	122,744	1831,476
1	0,000	122,744	1831,677
1	0,000	122,794	1831,879
1	0,000	122,794	1832,181
1	0,000	122,794	1832,281
1	0,000	122,794	1832,382
1	0,000	122,794	1832,684
1	0,000	122,844	1832,785
1	0,000	122,844	1833,087
1	0,000	122,844	1833,289
1	0,000	122,844	1833,591
1	0,000	122,844	1833,691
1	0,000	122,894	1833,893
1	0,000	122,894	1833,994
1	0,000	122,894	1834,094
1	0,000	122,894	1834,497
1	0,000	122,894	1834,598
1	0,000	122,944	1834,799
1	0,000	122,944	1835,001
1	0,000	122,944	1835,202
1	0,000	122,944	1835,403
1	0,000	122,944	1835,504
1	0,000	122,994	1835,806
1	0,000	122,994	1836,008
1	0,000	122,994	1836,209
1	0,000	122,994	1836,411
1	0,000	122,994	1836,612
1	0,000	123,045	1836,813
1	0,000	123,045	1837,015
1	0,000	123,045	1837,216
1	0,000	123,045	1837,418
1	0,000	123,045	1837,619
1	0,000	123,094	1837,820
1	0,000	123,094	1837,921
1	0,000	123,094	1838,123
1	0,000	123,094	1838,324
1	0,000	123,094	1838,626
1	0,000	123,144	1838,828
1	0,000	123,144	1838,928
1	0,000	123,144	1838,928
1	0,000	123,144	1839,230
1	0,000	123,144	1839,532
1	0,000	123,195	1839,734
1	0,000	123,195	1839,935
1	0,000	123,195	1840,237
1	0,000	123,195	1840,338
1	0,000	123,195	1840,540
1	0,000	123,246	1840,842
1	0,000	123,246	1840,942
1	0,000	123,246	1841,144
1	0,000	123,246	1841,345
1	0,000	123,246	1841,144
1	0,000	123,246	1841,949
1	0,000	123,296	1841,949
1	0,000	123,296	1842,151
1	0,000	123,296	1842,352
1	0,000	123,296	1842,554
1	0,000	123,296	1842,755
1	0,000	123,346	1842,856
1	0,000	123,346	1842,755
1	0,000	123,346	1843,359
1	0,000	123,346	1843,561
1	0,000	123,346	1843,762
1	0,000	123,395	1843,964
1	0,000	123,395	1844,165
1	0,000	123,395	1844,467
1	0,000	123,395	1844,568
1	0,000	123,395	1844,769
1	0,000	123,446	1844,971
1	0,000	123,446	1845,273
1	0,000	123,446	1845,374
1	0,000	123,446	1845,575
1	0,000	123,496	1845,776
1	0,000	123,496	1845,877
1	0,000	123,496	1846,179
1	0,000	123,496	1846,381
1	0,000	123,496	1846,582
1	0,000	123,496	1846,783
1	0,000	123,546	1846,884
1	0,000	123,546	1847,186
1	0,000	123,546	1847,388
1	0,000	123,546	1847,690
1	0,000	123,546	1847,791
1	0,000	123,597	1847,992
1	0,000	123,597	1848,193
1	0,000	123,597	1848,395
1	0,000	123,597	1848,596
1	0,000	123,597	1848,697
1	0,000	123,647	1848,898
1	0,000	123,647	1849,200
1	0,000	123,647	1849,402
1	0,000	123,647	1849,503
1	0,000	123,647	1849,704
1	0,000	123,697	1849,905
1	0,000	123,697	1850,006
1	0,000	123,697	1850,308
1	0,000	123,697	1850,610
1	0,000	123,697	1850,812
1	0,000	123,747	1850,912
1	0,000	123,747	1851,114
1	0,000	123,747	1851,315
1	0,000	123,747	1851,517
1	0,000	123,747	1851,718
1	0,000	123,797	1851,920
1	0,000	123,797	1852,121
1	0,000	123,797	1852,322
1	0,000	123,797	1852,524
1	0,000	123,797	1852,826
1	0,000	123,847	1852,927
1	0,000	123,847	1853,128
1	0,000	123,847	1853,329
1	0,000	123,847	1853,531
1	0,000	123,847	1853,732
1	0,000	123,897	1853,934
1	0,000	123,897	1854,135
1	0,000	123,897	1854,337
1	0,000	123,897	1854,538
1	0,000	123,947	1854,739
1	0,000	123,947	1854,941
1	0,000	123,947	1855,142
1	0,000	123,947	1855,444
1	0,000	123,947	1855,545
1	0,000	123,947	1855,746
1	0,000	123,996	1855,948
1	0,000	123,996	1856,149
1	0,000	123,996	1856,351
1	0,000	123,996	1856,552
1	0,000	123,996	1856,552
1	0,000	124,046	1856,955
1	0,000	124,046	1857,156
1	0,000	124,046	1857,358
1	0,000	124,046	1857,559
1	0,000	124,046	1857,761
1	0,000	124,097	1857,962
1	0,000	124,097	1858,163
1	0,000	124,097	1858,365
1	0,000	124,097	1858,466
1	0,000	124,097	1858,768
1	0,000	124,147	1858,868
1	0,000	124,147	1859,271
1	0,000	124,147	1859,271
1	0,000	124,147	1859,573
1	0,000	124,147	1859,775
1	0,000	124,198	1859,976
1	0,000	124,198	1860,178
1	0,000	124,198	1860,379
1	0,000	124,198	1860,379
1	0,000	124,198	1860,782
1	0,000	124,248	1860,983
1	0,000	124,248	1861,285
1	0,000	124,248	1861,386
1	0,000	124,248	1861,588
1	0,000	124,248	1861,890
1	0,000	124,298	1861,990
1	0,000	124,298	1862,091
1	0,000	124,298	1862,393
1	0,000	124,298	1862,494
1	0,000	124,298	1862,796
1	0,000	124,348	1862,897
1	0,000	124,348	1863,199
1	0,000	124,348	1863,400
1	0,000	124,348	1863,501
1	0,000	124,348	1863,803
1	0,000	124,398	1864,005
1	0,000	124,398	1864,307
1	0,000	124,398	1864,508
1	0,000	124,398	1864,609
1	0,000	124,398	1864,911
1	0,000	124,448	1865,012
1	0,000	124,448	1865,213
1	0,000	124,448	1865,414
1	0,000	124,448	1865,616
1	0,000	124,448	1865,817
1	0,000	124,498	1866,019
1	0,000	124,498	1866,220
1	0,000	124,498	1866,422
1	0,000	124,498	1866,623
1	0,000	124,498	1866,824
1	0,000	124,548	1867,026
1	0,000	124,548	1867,227
1	0,000	124,548	1867,328
1	0,000	124,548	1867,630
1	0,000	124,548	1867,731
1	0,000	124,598	1868,033
1	0,000	124,598	1868,234
1	0,000	124,598	1868,536
1	0,000	124,598	1868,738
1	0,000	124,598	1868,839
1	0,000	124,649	1869,040
1	0,000	124,649	1869,040
1	0,000	124,649	1869,543
1	0,000	124,649	1869,644
1	0,000	124,649	1869,846
1	0,000	124,699	1869,745
1	0,000	124,699	1870,148
1	0,000	124,699	1870,551
1	0,000	124,699	1870,651
1	0,000	124,699	1870,853
1	0,000	124,749	1871,155
1	0,000	124,749	1871,356
1	0,000	124,749	1871,558
1	0,000	124,749	1871,658
1	0,000	124,749	1871,860
1	0,000	124,799	1872,061
1	0,000	124,799	1872,263
1	0,000	124,799	1872,464
1	0,000	124,799	1872,665
1	0,000	124,799	1872,665
1	0,000	124,850	1873,068
1	0,000	124,850	1873,270
1	0,000	124,850	1873,370
1	0,000	124,850	1873,672
1	0,000	124,850	1873,874
1	0,000	124,900	1874,075
1	0,000	124,900	1874,277
1	0,000	124,900	1874,478
1	0,000	124,900	1874,680
1	0,000	124,900	1874,881
1	0,000	124,950	1875,082
1	0,000	124,950	1875,284
1	0,000	124,950	1875,485
1	0,000	124,950	1875,687
1	0,000	124,950	1875,989
1	0,000	125,001	1876,190
1	0,000	125,001	1876,291
1	0,000	125,001	1876,593
1	0,000	125,001	1876,694
1	0,000	125,001	1876,895
1	0,000	125,051	1876,996
1	0,000	125,051	1877,298
1	0,000	125,051	1877,600
1	0,000	125,051	1877,802
1	0,000	125,051	1878,003
1	0,000	125,101	1878,204
1	0,000	125,101	1878,305
1	0,000	125,101	1878,506
1	0,000	125,101	1878,708
1	0,000	125,101	1878,909
1	0,000	125,151	1879,111
1	0,000	125,151	1879,312
1	0,000	125,151	1879,514
1	0,000	125,151	1879,816
1	0,000	125,151	1879,916
1	0,000	125,201	1880,219
1	0,000	125,201	1880,521
1	0,000	125,201	1880,621
1	0,000	125,201	1880,823
1	0,000	125,201	1881,024
1	0,000	125,251	1881,326
1	0,000	125,251	1881,427
1	0,000	125,251	1881,628
1	0,000	125,251	1881,830
1	0,000	125,251	1882,031
1	0,000	125,301	1882,233
1	0,000	125,301	1882,434
1	0,000	125,301	1882,635
1	0,000	125,301	1882,736
1	0,000	125,301	1883,139
1	0,000	125,352	1883,340
1	0,000	125,352	1883,542
1	0,000	125,352	1883,643
1	0,000	125,352	1883,945
1	0,000	125,352	1884,247
1	0,000	125,402	1884,549
1	0,000	125,402	1884,750
1	0,000	125,402	1884,952
1	0,000	125,402	1885,052
1	0,000	125,402	1885,254
1	0,000	125,452	1885,355
1	0,000	125,452	1885,556
1	0,000	125,452	1885,757
1	0,000	125,452	1885,959
1	0,000	125,452	1886,362
1	0,000	125,501	1886,563
1	0,000	125,501	1886,765
1	0,000	125,501	1887,067
1	0,000	125,501	1887,167
1	0,000	125,501	1887,369
1	0,000	125,552	1887,570
1	0,000	125,552	1887,469
1	0,000	125,552	1888,074
1	0,000	125,552	1888,174
1	0,000	125,552	1888,376
1	0,000	125,602	1888,376
1	0,000	125,602	1888,577
1	0,000	125,602	1888,980
1	0,000	125,602	1889,282
1	0,000	125,602	1889,484
1	0,000	125,652	1889,786
1	0,000	125,652	1889,987
1	0,000	125,652	1890,088
1	0,000	125,652	1890,289
1	0,000	125,652	1890,491
1	0,000	125,702	1890,692
1	0,000	125,702	1890,894
1	0,000	125,702	1891,095
1	0,000	125,702	1891,296
1	0,000	125,702	1891,498
1	0,000	125,753	1891,699
1	0,000	125,753	1891,901
1	0,000	125,753	1892,102
1	0,000	125,753	1892,303
1	0,000	125,753	1892,505
1	0,000	125,803	1892,807
1	0,000	125,803	1892,908
1	0,000	125,803	1893,210
1	0,000	125,803	1893,210
1	0,000	125,803	1893,713
1	0,000	125,852	1893,814
1	0,000	125,852	1894,016
1	0,000	125,852	1894,217
1	0,000	125,852	1894,418
1	0,000	125,852	1894,620
1	0,000	125,903	1894,821
1	0,000	125,903	1895,023
1	0,000	125,903	1895,224
1	0,000	125,903	1895,425
1	0,000	125,903	1895,728
1	0,000	125,953	1895,929
1	0,000	125,953	1896,231
1	0,000	125,953	1896,432
1	0,000	125,953	1896,634
1	0,000	125,953	1896,735
1	0,000	126,003	1897,037
1	0,000	126,003	1897,238
1	0,000	126,003	1897,440
1	0,000	126,003	1897,641
1	0,000	126,003	1897,842
1	0,000	126,053	1897,943
1	0,000	126,053	1898,145
1	0,000	126,053	1898,346
1	0,000	126,053	1898,547
1	0,000	126,053	1898,749
1	0,000	126,103	1898,950
1	0,000	126,103	1899,252
1	0,000	126,103	1899,454
1	0,000	126,103	1899,756
1	0,000	126,103	1899,857
1	0,000	126,153	1900,058
1	0,000	126,153	1900,259
1	0,000	126,153	1900,461
1	0,000	126,153	1900,662
1	0,000	126,153	1900,763
1	0,000	126,203	1901,065
1	0,000	126,203	1901,266
1	0,000	126,203	1901,468
1	0,000	126,203	1901,669
1	0,000	126,203	1901,871
1	0,000	126,253	1902,072
1	0,000	126,253	1902,374
1	0,000	126,253	1902,374
1	0,000	126,253	1902,878
1	0,000	126,253	1902,979
1	0,000	126,303	1903,180
1	0,000	126,303	1903,381
1	0,000	126,303	1903,683
1	0,000	126,303	1903,683
1	0,000	126,303	1903,986
1	0,000	126,353	1904,187
1	0,000	126,353	1904,388
1	0,000	126,353	1904,590
1	0,000	126,353	1904,791
1	0,000	126,353	1905,093
1	0,000	126,403	1905,295
1	0,000	126,403	1905,496
1	0,000	126,403	1905,597
1	0,000	126,403	1906,000
1	0,000	126,403	1906,201
1	0,000	126,453	1906,403
1	0,000	126,453	1906,503
1	0,000	126,453	1906,705
1	0,000	126,453	1906,906
1	0,000	126,453	1907,108
1	0,000	126,503	1907,309
1	0,000	126,503	1907,510
1	0,000	126,503	1907,712
1	0,000	126,503	1907,913
1	0,000	126,503	1908,115
1	0,000	126,553	1908,115
1	0,000	126,553	1908,316
1	0,000	126,553	1908,820
1	0,000	126,553	1909,122
1	0,000	126,553	1909,222
1	0,000	126,603	1909,424
1	0,000	126,603	1909,625
1	0,000	126,603	1909,827
1	0,000	126,603	1910,028
1	0,000	126,603	1910,229
1	0,000	126,653	1910,431
1	0,000	126,653	1910,632
1	0,000	126,653	1910,733
1	0,000	126,653	1910,934
1	0,000	126,653	1911,136
1	0,000	126,704	1911,438
1	0,000	126,704	1911,539
1	0,000	126,704	1911,841
1	0,000	126,704	1912,143
1	0,000	126,704	1912,445
1	0,000	126,754	1912,546
1	0,000	126,754	1912,747
1	0,000	126,754	1913,049
1	0,000	126,754	1913,251
1	0,000	126,754	1913,452
1	0,000	126,804	1913,654
1	0,000	126,804	1913,855
1	0,000	126,804	1914,056
1	0,000	126,804	1914,258
1	0,000	126,804	1914,459
1	0,000	126,804	1914,661
1	0,000	126,854	1915,063
1	0,000	126,854	1915,164
1	0,000	126,854	1915,366
1	0,000	126,854	1915,668
1	0,000	126,904	1915,768
1	0,000	126,904	1915,970
1	0,000	126,904	1916,071
1	0,000	126,904	1916,373
1	0,000	126,904	1916,574
1	0,000	126,954	1916,776
1	0,000	126,954	1917,078
1	0,000	126,954	1917,279
1	0,000	126,954	1917,480
1	0,000	126,954	1917,682
1	0,000	126,954	1918,085
1	0,000	127,005	1918,286
1	0,000	127,005	1918,488
1	0,000	127,005	1918,689
1	0,000	127,005	1918,790
1	0,000	127,005	1918,991
1	0,000	127,054	1919,193
1	0,000	127,054	1919,394
1	0,000	127,054	1919,595
1	0,000	127,054	1919,797
1	0,000	127,054	1919,998
1	0,000	127,104	1920,200
1	0,000	127,104	1920,300
1	0,000	127,104	1920,602
1	0,000	127,104	1920,905
1	0,000	127,104	1921,106
1	0,000	127,155	1921,307
1	0,000	127,155	1921,509
1	0,000	127,155	1921,811
1	0,000	127,155	1922,012
1	0,000	127,155	1922,214
1	0,000	127,205	1922,516
1	0,000	127,205	1922,617
1	0,000	127,205	1922,919
1	0,000	127,205	1923,221
1	0,000	127,205	1923,422
1	0,000	127,255	1923,624
1	0,000	127,255	1923,523
1	0,000	127,255	1923,926
1	0,000	127,255	1924,329
1	0,000	127,255	1924,731
1	0,000	127,304	1924,832
1	0,000	127,304	1924,933
1	0,000	127,304	1925,134
1	0,000	127,304	1925,336
1	0,000	127,304	1925,537
1	0,000	127,354	1925,839
1	0,000	127,354	1926,041
1	0,000	127,354	1926,242
1	0,000	127,354	1926,443
1	0,000	127,354	1926,746
1	0,000	127,405	1926,947
1	0,000	127,405	1927,048
1	0,000	127,405	1927,249
1	0,000	127,405	1927,451
1	0,000	127,405	1927,753
1	0,000	127,455	1928,055
1	0,000	127,455	1928,156
1	0,000	127,455	1928,357
1	0,000	127,455	1928,659
1	0,000	127,455	1928,860
1	0,000	127,505	1929,062
1	0,000	127,505	1929,263
1	0,000	127,505	1929,465
1	0,000	127,505	1929,666
1	0,000	127,505	1929,767
1	0,000	127,555	1930,170
1	0,000	127,555	1930,270
1	0,000	127,555	1930,472
1	0,000	127,555	1930,774
1	0,000	127,555	1930,975
1	0,000	127,605	1931,378
1	0,000	127,605	1931,680
1	0,000	127,605	1931,781
1	0,000	127,605	1931,882
1	0,000	127,605	1932,083
1	0,000	127,655	1932,285
1	0,000	127,655	1932,486
1	0,000	127,655	1932,687
1	0,000	127,655	1932,889
1	0,000	127,655	1933,191
1	0,000	127,705	1933,392
1	0,000	127,705	1933,594
1	0,000	127,705	1933,795
1	0,000	127,705	1933,997
1	0,000	127,705	1934,299
1	0,000	127,755	1934,601
1	0,000	127,755	1934,802
1	0,000	127,755	1935,004
1	0,000	127,755	1935,205
1	0,000	127,755	1935,507
1	0,000	127,805	1935,608
1	0,000	127,805	1935,809
1	0,000	127,805	1935,809
1	0,000	127,805	1936,212
1	0,000	127,805	1936,514
1	0,000	127,855	1936,716
1	0,000	127,855	1936,917
1	0,000	127,855	1937,219
1	0,000	127,855	1937,521
1	0,000	127,855	1937,622
1	0,000	127,905	1937,924
1	0,000	127,905	1937,924
1	0,000	127,905	1938,327
1	0,000	127,905	1938,528
1	0,000	127,905	1938,629
1	0,000	127,954	1938,931
1	0,000	127,954	1939,133
1	0,000	127,954	1939,133
1	0,000	127,954	1939,536
1	0,000	127,954	1939,737
1	0,000	128,005	1939,938
1	0,000	128,005	1940,240
1	0,000	128,005	1940,543
1	0,000	128,005	1940,744
1	0,000	128,005	1940,945
1	0,000	128,055	1941,147
1	0,000	128,055	1941,348
1	0,000	128,055	1941,550
1	0,000	128,055	1941,852
1	0,000	128,055	1941,953
1	0,000	128,105	1942,255
1	0,000	128,105	1942,456
1	0,000	128,105	1942,657
1	0,000	128,105	1942,859
1	0,000	128,105	1943,161
1	0,000	128,156	1943,262
1	0,000	128,156	1943,564
1	0,000	128,156	1943,866
1	0,000	128,156	1944,067
1	0,000	128,156	1944,370
1	0,000	128,205	1944,470
1	0,000	128,205	1944,672
1	0,000	128,205	1944,772
1	0,000	128,205	1945,074
1	0,000	128,205	1945,377
1	0,000	128,255	1945,477
1	0,000	128,255	1945,679
1	0,000	128,255	1945,981
1	0,000	128,255	1946,283
1	0,000	128,255	1946,384
1	0,000	128,306	1946,686
1	0,000	128,306	1946,887
1	0,000	128,306	1946,887
1	0,000	128,306	1947,290
1	0,000	128,306	1947,491
1	0,000	128,355	1947,693
1	0,000	128,355	1947,995
1	0,000	128,355	1948,096
1	0,000	128,355	1948,297
1	0,000	128,355	1948,499
1	0,000	128,405	1948,700
1	0,000	128,405	1948,901
1	0,000	128,405	1949,304
1	0,000	128,405	1949,506
1	0,000	128,405	1949,707
1	0,000	128,455	1949,707
1	0,000	128,455	1950,211
1	0,000	128,455	1950,311
1	0,000	128,455	1950,412
1	0,000	128,455	1950,916
1	0,000	128,506	1951,117
1	0,000	128,506	1951,318
1	0,000	128,506	1951,419
1	0,000	128,506	1951,520
1	0,000	128,506	1951,822
1	0,000	128,555	1952,023
1	0,000	128,555	1952,426
1	0,000	128,555	1952,628
1	0,000	128,555	1952,728
1	0,000	128,555	1953,030
1	0,000	128,606	1953,131
1	0,000	128,606	1953,433
1	0,000	128,606	1953,635
1	0,000	128,606	1953,937
1	0,000	128,606	1954,037
1	0,000	128,656	1954,239
1	0,000	128,656	1954,541
1	0,000	128,656	1954,742
1	0,000	128,656	1954,944
1	0,000	128,656	1955,045
1	0,000	128,705	1955,145
1	0,000	128,705	1955,447
1	0,000	128,705	1955,548
1	0,000	128,705	1955,951
1	0,000	128,705	1956,152
1	0,000	128,756	1956,454
1	0,000	128,756	1956,555
1	0,000	128,756	1956,857
1	0,000	128,756	1956,857
1	0,000	128,756	1957,361
1	0,000	128,806	1957,562
1	0,000	128,806	1957,764
1	0,000	128,806	1958,066
1	0,000	128,806	1958,267
1	0,000	128,806	1958,469
1	0,000	128,856	1958,670
1	0,000	128,856	1958,871
1	0,000	128,856	1958,972
1	0,000	128,856	1959,174
1	0,000	128,856	1959,476
1	0,000	128,906	1959,677
1	0,000	128,906	1959,879
1	0,000	128,906	1960,181
1	0,000	128,906	1960,382
1	0,000	128,906	1960,684
1	0,000	128,956	1960,886
1	0,000	128,956	1960,886
1	0,000	128,956	1961,389
1	0,000	128,956	1961,591
1	0,000	128,956	1961,691
1	0,000	129,006	1961,893
1	0,000	129,006	1962,094
1	0,000	129,006	1962,296
1	0,000	129,006	1962,497
1	0,000	129,006	1962,698
1	0,000	129,056	1962,799
1	0,000	129,056	1963,101
1	0,000	129,056	1963,303
1	0,000	129,056	1963,605
1	0,000	129,056	1963,907
1	0,000	129,106	1964,209
1	0,000	129,106	1964,410
1	0,000	129,106	1964,612
1	0,000	129,106	1965,015
1	0,000	129,106	1965,216
1	0,000	129,156	1965,317
1	0,000	129,156	1965,518
1	0,000	129,156	1965,518
1	0,000	129,156	1965,820
1	0,000	129,156	1966,022
1	0,000	129,207	1966,122
1	0,000	129,207	1966,324
1	0,000	129,207	1966,626
1	0,000	129,207	1966,928
1	0,000	129,207	1967,029
1	0,000	129,257	1967,432
1	0,000	129,257	1967,633
1	0,000	129,257	1967,834
1	0,000	129,257	1968,036
1	0,000	129,257	1968,338
1	0,000	129,308	1968,439
1	0,000	129,308	1968,741
1	0,000	129,308	1968,942
1	0,000	129,308	1969,144
1	0,000	129,308	1969,345
1	0,000	129,358	1969,547
1	0,000	129,358	1969,748
1	0,000	129,358	1969,949
1	0,000	129,358	1970,151
1	0,000	129,358	1970,453
1	0,000	129,408	1970,654
1	0,000	129,408	1970,956
1	0,000	129,408	1971,158
1	0,000	129,408	1971,259
1	0,000	129,408	1971,661
1	0,000	129,458	1971,863
1	0,000	129,458	1972,064
1	0,000	129,458	1972,266
1	0,000	129,458	1972,467
1	0,000	129,458	1972,668
1	0,000	129,508	1972,870
1	0,000	129,508	1972,870
1	0,000	129,508	1973,273
1	0,000	129,508	1973,474
1	0,000	129,508	1973,676
1	0,000	129,558	1973,877
1	0,000	129,558	1974,078
1	0,000	129,558	1974,380
1	0,000	129,558	1974,683
1	0,000	129,558	1974,884
1	0,000	129,608	1975,085
1	0,000	129,608	1975,287
1	0,000	129,608	1975,488
1	0,000	129,608	1975,690
1	0,000	129,608	1975,992
1	0,000	129,658	1976,093
1	0,000	129,658	1976,495
1	0,000	129,658	1976,596
1	0,000	129,658	1976,797
1	0,000	129,658	1976,999
1	0,000	129,708	1977,200
1	0,000	129,708	1977,603
1	0,000	129,708	1977,704
1	0,000	129,708	1977,805
1	0,000	129,708	1978,207
1	0,000	129,758	1978,409
1	0,000	129,758	1978,610
1	0,000	129,758	1978,912
1	0,000	129,758	1979,114
1	0,000	129,758	1979,315
1	0,000	129,809	1979,517
1	0,000	129,809	1979,617
1	0,000	129,809	1979,819
1	0,000	129,809	1980,121
1	0,000	129,809	1980,322
1	0,000	129,859	1980,524
1	0,000	129,859	1980,725
1	0,000	129,859	1981,027
1	0,000	129,859	1981,329
1	0,000	129,859	1981,430
1	0,000	129,909	1981,732
1	0,000	129,909	1981,934
1	0,000	129,909	1982,236
1	0,000	129,909	1982,437
1	0,000	129,909	1982,639
1	0,000	129,960	1982,840
1	0,000	129,960	1983,041
1	0,000	129,960	1983,243
1	0,000	129,960	1983,444
1	0,000	129,960	1983,646
1	0,000	130,009	1983,847
1	0,000	130,009	1984,149
1	0,000	130,009	1984,250
1	0,000	130,009	1984,552
1	0,000	130,009	1984,854
1	0,000	130,059	1984,955
1	0,000	130,059	1985,257
1	0,000	130,059	1985,559
1	0,000	130,059	1985,559
1	0,000	130,059	1985,962
1	0,000	130,110	1986,163
1	0,000	130,110	1986,465
1	0,000	130,110	1986,566
1	0,000	130,110	1986,868
1	0,000	130,110	1986,969
1	0,000	130,159	1987,170
1	0,000	130,159	1987,372
1	0,000	130,159	1987,573
1	0,000	130,159	1987,976
1	0,000	130,159	1988,077
1	0,000	130,210	1988,177
1	0,000	130,210	1988,379
1	0,000	130,210	1988,882
1	0,000	130,210	1988,983
1	0,000	130,210	1989,285
1	0,000	130,260	1989,487
1	0,000	130,260	1989,688
1	0,000	130,260	1989,890
1	0,000	130,260	1990,091
1	0,000	130,260	1990,292
1	0,000	130,310	1990,494
1	0,000	130,310	1990,897
1	0,000	130,310	1990,997
1	0,000	130,310	1991,199
1	0,000	130,310	1991,400
1	0,000	130,360	1991,602
1	0,000	130,360	1991,904
1	0,000	130,360	1992,206
1	0,000	130,360	1992,407
1	0,000	130,360	1992,609
1	0,000	130,411	1992,810
1	0,000	130,411	1993,011
1	0,000	130,411	1993,314
1	0,000	130,411	1993,515
1	0,000	130,411	1993,918
1	0,000	130,461	1994,019
1	0,000	130,461	1994,220
1	0,000	130,461	1994,321
1	0,000	130,461	1994,623
1	0,000	130,461	1994,824
1	0,000	130,511	1995,026
1	0,000	130,511	1995,328
1	0,000	130,511	1995,529
1	0,000	130,511	1995,731
1	0,000	130,511	1996,133
1	0,000	130,561	1996,335
1	0,000	130,561	1996,536
1	0,000	130,561	1996,637
1	0,000	130,561	1996,939
1	0,000	130,561	1997,141
1	0,000	130,610	1997,443
1	0,000	130,610	1997,543
1	0,000	130,610	1997,745
1	0,000	130,610	1997,946
1	0,000	130,610	1998,148
1	0,000	130,661	1998,349
1	0,000	130,661	1998,550
1	0,000	130,661	1998,853
1	0,000	130,661	1999,155
1	0,000	130,661	1999,255
1	0,000	130,711	1999,557
1	0,000	130,711	1999,759
1	0,000	130,711	2000,061
1	0,000	130,711	2000,262
1	0,000	130,711	2000,464
1	0,000	130,761	2000,665
1	0,000	130,761	2000,967
1	0,000	130,761	2001,169
1	0,000	130,761	2001,370
1	0,000	130,761	2001,572
1	0,000	130,811	2001,773
1	0,000	130,811	2001,974
1	0,000	130,811	2002,277
1	0,000	130,811	2002,478
1	0,000	130,811	2002,780
1	0,000	130,861	2002,982
1	0,000	130,861	2003,183
1	0,000	130,861	2003,384
1	0,000	130,861	2003,687
1	0,000	130,861	2003,888
1	0,000	130,861	2004,089
1	0,000	130,912	2004,391
1	0,000	130,912	2004,593
1	0,000	130,912	2004,794
1	0,000	130,912	2004,996
1	0,000	130,961	2005,197
1	0,000	130,961	2005,298
1	0,000	130,961	2005,399
1	0,000	130,961	2005,902
1	0,000	130,961	2006,104
1	0,000	131,011	2006,406
1	0,000	131,011	2006,708
1	0,000	131,011	2006,909
1	0,000	131,011	2007,010
1	0,000	131,011	2007,211
1	0,000	131,061	2007,513
1	0,000	131,061	2007,715
1	0,000	131,061	2008,017
1	0,000	131,061	2008,218
1	0,000	131,061	2008,319
1	0,000	131,112	2008,621
1	0,000	131,112	2008,823
1	0,000	131,112	2009,024
1	0,000	131,112	2009,125
1	0,000	131,112	2009,528
1	0,000	131,112	2009,729
1	0,000	131,161	2009,930
1	0,000	131,161	2010,132
1	0,000	131,161	2010,333
1	0,000	131,161	2010,635
1	0,000	131,212	2010,837
1	0,000	131,212	2011,038
1	0,000	131,212	2011,340
1	0,000	131,212	2011,642
1	0,000	131,212	2011,642
1	0,000	131,262	2012,146
1	0,000	131,262	2012,146
1	0,000	131,262	2011,945
1	0,000	131,262	2012,650
1	0,000	131,262	2012,650
1	0,000	131,262	2013,153
1	0,000	131,312	2013,354
1	0,000	131,312	2013,556
1	0,000	131,312	2013,858
1	0,000	131,312	2013,959
1	0,000	131,362	2014,059
1	0,000	131,362	2014,563
1	0,000	131,362	2014,664
1	0,000	131,362	2015,067
1	0,000	131,362	2015,167
1	0,000	131,362	2015,369
1	0,000	131,413	2015,570
1	0,000	131,413	2015,570
1	0,000	131,413	2015,671
1	0,000	131,413	2016,275
1	0,000	131,413	2016,476
1	0,000	131,463	2016,678
1	0,000	131,463	2016,879
1	0,000	131,463	2016,980
1	0,000	131,463	2017,484
1	0,000	131,513	2017,584
1	0,000	131,513	2017,786
1	0,000	131,513	2017,987
1	0,000	131,513	2018,289
1	0,000	131,513	2018,491
1	0,000	131,513	2018,893
1	0,000	131,563	2018,994
1	0,000	131,563	2019,196
1	0,000	131,563	2019,397
1	0,000	131,563	2019,598
1	0,000	131,563	2019,699
1	0,000	131,613	2020,001
1	0,000	131,613	2020,303
1	0,000	131,613	2020,605
1	0,000	131,613	2020,908
1	0,000	131,613	2021,109
1	0,000	131,663	2021,310
1	0,000	131,663	2021,512
1	0,000	131,663	2021,613
1	0,000	131,663	2021,915
1	0,000	131,663	2022,318
1	0,000	131,713	2022,519
1	0,000	131,713	2022,620
1	0,000	131,713	2022,821
1	0,000	131,713	2023,022
1	0,000	131,713	2023,224
1	0,000	131,763	2023,425
1	0,000	131,763	2023,727
1	0,000	131,763	2023,828
1	0,000	131,763	2024,332
1	0,000	131,763	2024,533
1	0,000	131,813	2024,634
1	0,000	131,813	2024,835
1	0,000	131,813	2025,037
1	0,000	131,813	2025,238
1	0,000	131,813	2025,037
1	0,000	131,863	2025,641
1	0,000	131,863	2025,943
1	0,000	131,863	2026,245
1	0,000	131,863	2026,346
1	0,000	131,863	2026,547
1	0,000	131,913	2026,749
1	0,000	131,913	2026,950
1	0,000	131,913	2027,252
1	0,000	131,913	2027,454
1	0,000	131,913	2027,756
1	0,000	131,963	2028,058
1	0,000	131,963	2028,159
1	0,000	131,963	2028,461
1	0,000	131,963	2028,662
1	0,000	131,963	2028,864
1	0,000	132,013	2029,065
1	0,000	132,013	2029,065
1	0,000	132,013	2029,669
1	0,000	132,013	2029,871
1	0,000	132,013	2029,971
1	0,000	132,063	2030,173
1	0,000	132,063	2030,374
1	0,000	132,063	2030,475
1	0,000	132,063	2030,777
1	0,000	132,063	2030,978
1	0,000	132,113	2031,281
1	0,000	132,113	2031,482
1	0,000	132,113	2031,583
1	0,000	132,113	2031,784
1	0,000	132,113	2032,187
1	0,000	132,163	2032,288
1	0,000	132,163	2032,489
1	0,000	132,163	2032,590
1	0,000	132,163	2032,892
1	0,000	132,163	2033,194
1	0,000	132,214	2033,194
1	0,000	132,214	2033,395
1	0,000	132,214	2033,698
1	0,000	132,214	2033,798
1	0,000	132,214	2034,201
1	0,000	132,265	2034,503
1	0,000	132,265	2034,604
1	0,000	132,265	2034,906
1	0,000	132,265	2035,107
1	0,000	132,265	2035,309
1	0,000	132,315	2035,510
1	0,000	132,315	2035,712
1	0,000	132,315	2035,913
1	0,000	132,315	2035,812
1	0,000	132,315	2036,417
1	0,000	132,365	2036,618
1	0,000	132,365	2036,819
1	0,000	132,365	2037,021
1	0,000	132,365	2037,222
1	0,000	132,365	2037,424
1	0,000	132,415	2037,726
1	0,000	132,415	2037,927
1	0,000	132,415	2038,431
1	0,000	132,415	2038,632
1	0,000	132,415	2038,733
1	0,000	132,465	2038,934
1	0,000	132,465	2039,236
1	0,000	132,465	2039,438
1	0,000	132,465	2039,740
1	0,000	132,465	2040,042
1	0,000	132,515	2040,244
1	0,000	132,515	2040,445
1	0,000	132,515	2040,646
1	0,000	132,515	2040,848
1	0,000	132,515	2041,150
1	0,000	132,565	2041,452
1	0,000	132,565	2041,452
1	0,000	132,565	2041,553
1	0,000	132,565	2041,956
1	0,000	132,565	2042,157
1	0,000	132,615	2042,358
1	0,000	132,615	2042,560
1	0,000	132,615	2042,862
1	0,000	132,615	2043,063
1	0,000	132,615	2043,265
1	0,000	132,665	2043,365
1	0,000	132,665	2043,668
1	0,000	132,665	2043,869
1	0,000	132,665	2044,070
1	0,000	132,665	2044,171
1	0,000	132,716	2044,473
1	0,000	132,716	2044,675
1	0,000	132,716	2044,876
1	0,000	132,716	2045,380
1	0,000	132,716	2045,581
1	0,000	132,766	2045,782
1	0,000	132,766	2046,085
1	0,000	132,766	2046,185
1	0,000	132,766	2046,387
1	0,000	132,766	2046,689
1	0,000	132,816	2046,689
1	0,000	132,816	2047,092
1	0,000	132,816	2047,394
1	0,000	132,816	2047,495
1	0,000	132,816	2047,897
1	0,000	132,866	2048,099
1	0,000	132,866	2048,300
1	0,000	132,866	2048,300
1	0,000	132,866	2048,602
1	0,000	132,866	2049,005
1	0,000	132,916	2049,307
1	0,000	132,916	2049,509
1	0,000	132,916	2049,609
1	0,000	132,916	2049,811
1	0,000	132,916	2050,012
1	0,000	132,966	2050,214
1	0,000	132,966	2050,415
1	0,000	132,966	2050,717
1	0,000	132,966	2050,919
1	0,000	132,966	2050,818
1	0,000	133,016	2051,321
1	0,000	133,016	2051,624
1	0,000	133,016	2051,926
1	0,000	133,016	2052,026
1	0,000	133,016	2052,429
1	0,000	133,066	2052,530
1	0,000	133,066	2052,731
1	0,000	133,066	2053,134
1	0,000	133,066	2053,336
1	0,000	133,066	2053,033
1	0,000	133,116	2053,738
1	0,000	133,116	2053,940
1	0,000	133,116	2054,141
1	0,000	133,116	2054,343
1	0,000	133,116	2054,544
1	0,000	133,167	2054,745
1	0,000	133,167	2055,048
1	0,000	133,167	2055,249
1	0,000	133,167	2055,551
1	0,000	133,167	2055,753
1	0,000	133,217	2056,055
1	0,000	133,217	2056,357
1	0,000	133,217	2056,558
1	0,000	133,217	2056,760
1	0,000	133,217	2056,961
1	0,000	133,268	2057,263
1	0,000	133,268	2057,465
1	0,000	133,268	2057,666
1	0,000	133,268	2057,867
1	0,000	133,268	2058,069
1	0,000	133,317	2058,371
1	0,000	133,317	2058,572
1	0,000	133,317	2058,774
1	0,000	133,317	2058,975
1	0,000	133,317	2059,177
1	0,000	133,367	2059,378
1	0,000	133,367	2059,579
1	0,000	133,367	2059,781
1	0,000	133,367	2059,982
1	0,000	133,367	2060,284
1	0,000	133,417	2060,486
1	0,000	133,417	2060,687
1	0,000	133,417	2060,989
1	0,000	133,417	2061,292
1	0,000	133,417	2061,493
1	0,000	133,467	2061,694
1	0,000	133,467	2061,896
1	0,000	133,467	2062,198
1	0,000	133,467	2062,399
1	0,000	133,467	2062,701
1	0,000	133,517	2062,903
1	0,000	133,517	2063,205
1	0,000	133,517	2063,306
1	0,000	133,517	2063,406
1	0,000	133,517	2063,809
1	0,000	133,568	2064,011
1	0,000	133,568	2064,313
1	0,000	133,568	2064,514
1	0,000	133,568	2064,816
1	0,000	133,568	2065,018
1	0,000	133,618	2065,219
1	0,000	133,618	2065,421
1	0,000	133,618	2065,723
1	0,000	133,618	2065,924
1	0,000	133,618	2066,125
1	0,000	133,668	2066,327
1	0,000	133,668	2066,428
1	0,000	133,668	2066,730
1	0,000	133,668	2066,931
1	0,000	133,668	2067,233
1	0,000	133,717	2067,435
1	0,000	133,717	2067,636
1	0,000	133,717	2067,938
1	0,000	133,717	2068,140
1	0,000	133,717	2068,341
1	0,000	133,768	2068,744
1	0,000	133,768	2068,945
1	0,000	133,768	2068,542
1	0,000	133,768	2069,348
1	0,000	133,768	2069,449
1	0,000	133,818	2069,751
1	0,000	133,818	2069,952
1	0,000	133,818	2070,255
1	0,000	133,818	2070,456
1	0,000	133,818	2070,657
1	0,000	133,868	2070,859
1	0,000	133,868	2071,060
1	0,000	133,868	2071,362
1	0,000	133,868	2071,564
1	0,000	133,868	2071,765
1	0,000	133,918	2072,067
1	0,000	133,918	2072,369
1	0,000	133,918	2072,571
1	0,000	133,918	2072,873
1	0,000	133,918	2073,074
1	0,000	133,968	2073,276
1	0,000	133,968	2073,477
1	0,000	133,968	2073,679
1	0,000	133,968	2073,880
1	0,000	133,968	2074,182
1	0,000	134,018	2074,384
1	0,000	134,018	2074,585
1	0,000	134,018	2074,887
1	0,000	134,018	2075,089
1	0,000	134,018	2075,391
1	0,000	134,069	2075,592
1	0,000	134,069	2075,894
1	0,000	134,069	2076,196
1	0,000	134,069	2076,297
1	0,000	134,069	2076,599
1	0,000	134,118	2076,801
1	0,000	134,118	2077,002
1	0,000	134,118	2077,304
1	0,000	134,118	2077,505
1	0,000	134,118	2077,808
1	0,000	134,169	2077,908
1	0,000	134,169	2078,210
1	0,000	134,169	2078,311
1	0,000	134,169	2078,613
1	0,000	134,169	2078,915
1	0,000	134,219	2079,016
1	0,000	134,219	2079,419
1	0,000	134,219	2079,620
1	0,000	134,219	2079,922
1	0,000	134,219	2080,023
1	0,000	134,269	2080,325
1	0,000	134,269	2080,527
1	0,000	134,269	2080,728
1	0,000	134,269	2081,030
1	0,000	134,269	2081,131
1	0,000	134,319	2081,534
1	0,000	134,319	2081,635
1	0,000	134,319	2081,836
1	0,000	134,319	2082,138
1	0,000	134,319	2082,339
1	0,000	134,369	2082,642
1	0,000	134,369	2082,742
1	0,000	134,369	2083,044
1	0,000	134,369	2083,246
1	0,000	134,369	2083,548
1	0,000	134,419	2083,850
1	0,000	134,419	2084,052
1	0,000	134,419	2084,354
1	0,000	134,419	2084,555
1	0,000	134,419	2084,857
1	0,000	134,470	2084,958
1	0,000	134,470	2085,260
1	0,000	134,470	2085,461
1	0,000	134,470	2085,764
1	0,000	134,470	2085,965
1	0,000	134,519	2086,166
1	0,000	134,519	2086,368
1	0,000	134,519	2086,569
1	0,000	134,519	2086,972
1	0,000	134,519	2087,173
1	0,000	134,569	2087,375
1	0,000	134,569	2087,677
1	0,000	134,569	2087,878
1	0,000	134,569	2088,080
1	0,000	134,569	2088,281
1	0,000	134,619	2088,583
1	0,000	134,619	2088,785
1	0,000	134,619	2088,986
1	0,000	134,619	2089,288
1	0,000	134,619	2089,490
1	0,000	134,669	2089,792
1	0,000	134,669	2089,893
1	0,000	134,669	2090,195
1	0,000	134,669	2090,396
1	0,000	134,669	2090,698
1	0,000	134,719	2090,799
1	0,000	134,719	2091,000
1	0,000	134,719	2091,403
1	0,000	134,719	2091,705
1	0,000	134,719	2091,806
1	0,000	134,769	2092,108
1	0,000	134,769	2092,310
1	0,000	134,769	2092,511
1	0,000	134,769	2092,813
1	0,000	134,769	2093,015
1	0,000	134,819	2093,216
1	0,000	134,819	2093,417
1	0,000	134,819	2093,719
1	0,000	134,819	2093,921
1	0,000	134,819	2094,223
1	0,000	134,869	2094,223
1	0,000	134,869	2094,827
1	0,000	134,869	2095,029
1	0,000	134,869	2095,230
1	0,000	134,869	2095,432
1	0,000	134,919	2095,633
1	0,000	134,919	2095,834
1	0,000	134,919	2096,036
1	0,000	134,919	2096,338
1	0,000	134,919	2096,539
1	0,000	134,969	2096,741
1	0,000	134,969	2097,043
1	0,000	134,969	2097,244
1	0,000	134,969	2097,647
1	0,000	134,969	2097,849
1	0,000	135,020	2098,050
1	0,000	135,020	2098,151
1	0,000	135,020	2098,453
1	0,000	135,020	2098,654
1	0,000	135,020	2098,856
1	0,000	135,069	2099,158
1	0,000	135,069	2099,460
1	0,000	135,069	2099,661
1	0,000	135,069	2099,963
1	0,000	135,069	2100,165
1	0,000	135,120	2100,366
1	0,000	135,120	2100,568
1	0,000	135,120	2100,870
1	0,000	135,120	2101,071
1	0,000	135,120	2101,373
1	0,000	135,170	2101,474
1	0,000	135,170	2101,675
1	0,000	135,170	2102,078
1	0,000	135,170	2102,179
1	0,000	135,170	2102,582
1	0,000	135,170	2102,783
1	0,000	135,220	2102,985
1	0,000	135,220	2103,186
1	0,000	135,220	2103,387
1	0,000	135,220	2103,589
1	0,000	135,220	2103,891
1	0,000	135,270	2104,092
1	0,000	135,270	2104,395
1	0,000	135,270	2104,596
1	0,000	135,270	2104,697
1	0,000	135,270	2104,898
1	0,000	135,321	2105,200
1	0,000	135,321	2105,301
1	0,000	135,321	2105,603
1	0,000	135,321	2105,704
1	0,000	135,321	2106,409
1	0,000	135,371	2106,308
1	0,000	135,371	2106,812
1	0,000	135,371	2107,013
1	0,000	135,371	2107,214
1	0,000	135,371	2107,516
1	0,000	135,421	2107,718
1	0,000	135,421	2108,020
1	0,000	135,421	2108,221
1	0,000	135,421	2108,121
1	0,000	135,421	2108,423
1	0,000	135,471	2108,926
1	0,000	135,471	2109,229
1	0,000	135,471	2109,531
1	0,000	135,471	2109,732
1	0,000	135,471	2109,833
1	0,000	135,521	2110,034
1	0,000	135,521	2110,336
1	0,000	135,521	2110,538
1	0,000	135,521	2110,840
1	0,000	135,521	2111,041
1	0,000	135,571	2111,343
1	0,000	135,571	2111,444
1	0,000	135,571	2111,746
1	0,000	135,571	2111,948
1	0,000	135,571	2112,149
1	0,000	135,621	2112,451
1	0,000	135,621	2112,653
1	0,000	135,621	2112,955
1	0,000	135,621	2113,156
1	0,000	135,621	2113,458
1	0,000	135,671	2113,660
1	0,000	135,671	2114,062
1	0,000	135,671	2114,163
1	0,000	135,671	2114,365
1	0,000	135,721	2114,566
1	0,000	135,721	2114,868
1	0,000	135,721	2115,070
1	0,000	135,721	2115,372
1	0,000	135,721	2115,573
1	0,000	135,721	2115,875
1	0,000	135,771	2116,077
1	0,000	135,771	2116,379
1	0,000	135,771	2116,479
1	0,000	135,771	2116,782
1	0,000	135,771	2117,084
1	0,000	135,821	2117,386
1	0,000	135,821	2117,688
1	0,000	135,821	2117,789
1	0,000	135,821	2118,091
1	0,000	135,821	2118,393
1	0,000	135,871	2118,494
1	0,000	135,871	2118,695
1	0,000	135,871	2118,997
1	0,000	135,871	2119,199
1	0,000	135,871	2119,501
1	0,000	135,920	2119,803
1	0,000	135,920	2120,105
1	0,000	135,920	2120,206
1	0,000	135,920	2120,508
1	0,000	135,920	2120,709
1	0,000	135,971	2121,011
1	0,000	135,971	2121,213
1	0,000	135,971	2121,414
1	0,000	135,971	2121,616
1	0,000	135,971	2121,817
1	0,000	136,021	2122,119
1	0,000	136,021	2122,321
1	0,000	136,021	2122,623
1	0,000	136,021	2122,824
1	0,000	136,021	2123,126
1	0,000	136,072	2123,328
1	0,000	136,072	2123,529
1	0,000	136,072	2123,831
1	0,000	136,072	2124,033
1	0,000	136,072	2124,335
1	0,000	136,121	2124,536
1	0,000	136,121	2124,738
1	0,000	136,121	2124,939
1	0,000	136,121	2125,241
1	0,000	136,121	2125,543
1	0,000	136,172	2125,745
1	0,000	136,172	2126,047
1	0,000	136,172	2126,349
1	0,000	136,172	2126,550
1	0,000	136,172	2126,752
1	0,000	136,222	2126,953
1	0,000	136,222	2127,255
1	0,000	136,222	2127,457
1	0,000	136,222	2127,658
1	0,000	136,222	2127,960
1	0,000	136,271	2128,162
1	0,000	136,271	2128,464
1	0,000	136,271	2128,665
1	0,000	136,271	2128,867
1	0,000	136,271	2129,169
1	0,000	136,322	2129,370
1	0,000	136,322	2129,672
1	0,000	136,322	2129,773
1	0,000	136,322	2130,176
1	0,000	136,322	2130,377
1	0,000	136,372	2130,679
1	0,000	136,372	2130,881
1	0,000	136,372	2131,082
1	0,000	136,372	2131,284
1	0,000	136,372	2131,586
1	0,000	136,422	2131,787
1	0,000	136,422	2132,089
1	0,000	136,422	2132,291
1	0,000	136,422	2132,593
1	0,000	136,422	2132,794
1	0,000	136,472	2133,096
1	0,000	136,472	2133,499
1	0,000	136,472	2133,701
1	0,000	136,472	2133,801
1	0,000	136,472	2134,003
1	0,000	136,522	2134,305
1	0,000	136,522	2134,607
1	0,000	136,522	2134,909
1	0,000	136,522	2135,010
1	0,000	136,522	2135,312
1	0,000	136,572	2135,513
1	0,000	136,572	2135,815
1	0,000	136,572	2136,118
1	0,000	136,572	2136,319
1	0,000	136,572	2136,520
1	0,000	136,622	2136,722
1	0,000	136,622	2137,024
1	0,000	136,622	2137,225
1	0,000	136,622	2137,427
1	0,000	136,622	2137,830
1	0,000	136,672	2138,031
1	0,000	136,672	2138,232
1	0,000	136,672	2138,333
1	0,000	136,672	2138,736
1	0,000	136,672	2138,937
1	0,000	136,722	2139,240
1	0,000	136,722	2139,441
1	0,000	136,722	2139,743
1	0,000	136,722	2139,944
1	0,000	136,722	2140,247
1	0,000	136,773	2140,448
1	0,000	136,773	2140,649
1	0,000	136,773	2140,952
1	0,000	136,773	2141,254
1	0,000	136,773	2141,455
1	0,000	136,823	2141,556
1	0,000	136,823	2141,858
1	0,000	136,823	2142,059
1	0,000	136,823	2142,563
1	0,000	136,823	2142,563
1	0,000	136,873	2142,865
1	0,000	136,873	2143,167
1	0,000	136,873	2143,268
1	0,000	136,873	2143,671
1	0,000	136,873	2143,872
1	0,000	136,924	2144,275
1	0,000	136,924	2144,476
1	0,000	136,924	2144,577
1	0,000	136,924	2144,879
1	0,000	136,924	2145,081
1	0,000	136,974	2145,383
1	0,000	136,974	2145,584
1	0,000	136,974	2145,886
1	0,000	136,974	2146,088
1	0,000	136,974	2146,390
1	0,000	137,024	2146,591
1	0,000	137,024	2146,793
1	0,000	137,024	2147,095
1	0,000	137,024	2147,296
1	0,000	137,024	2147,598
1	0,000	137,074	2147,900
1	0,000	137,074	2148,203
1	0,000	137,074	2148,303
1	0,000	137,074	2148,505
1	0,000	137,074	2148,807
1	0,000	137,124	2149,008
1	0,000	137,124	2149,310
1	0,000	137,124	2149,512
1	0,000	137,124	2149,814
1	0,000	137,124	2150,116
1	0,000	137,174	2150,217
1	0,000	137,174	2150,620
1	0,000	137,174	2150,821
1	0,000	137,174	2150,821
1	0,000	137,174	2151,324
1	0,000	137,224	2151,526
1	0,000	137,224	2151,828
1	0,000	137,224	2151,929
1	0,000	137,224	2152,332
1	0,000	137,224	2152,432
1	0,000	137,274	2152,835
1	0,000	137,274	2153,036
1	0,000	137,274	2153,238
1	0,000	137,274	2153,540
1	0,000	137,274	2153,741
1	0,000	137,324	2154,044
1	0,000	137,324	2154,245
1	0,000	137,324	2154,547
1	0,000	137,324	2154,849
1	0,000	137,324	2155,051
1	0,000	137,374	2155,353
1	0,000	137,374	2155,554
1	0,000	137,374	2155,756
1	0,000	137,374	2156,058
1	0,000	137,374	2156,360
1	0,000	137,425	2156,561
1	0,000	137,425	2156,863
1	0,000	137,425	2157,065
1	0,000	137,425	2157,266
1	0,000	137,425	2157,568
1	0,000	137,475	2157,770
1	0,000	137,475	2158,072
1	0,000	137,475	2158,374
1	0,000	137,475	2158,575
1	0,000	137,475	2158,777
1	0,000	137,525	2159,079
1	0,000	137,525	2159,381
1	0,000	137,525	2159,583
1	0,000	137,525	2159,784
1	0,000	137,525	2160,086
1	0,000	137,575	2160,388
1	0,000	137,575	2160,590
1	0,000	137,575	2160,892
1	0,000	137,575	2161,093
1	0,000	137,575	2161,295
1	0,000	137,625	2161,597
1	0,000	137,625	2161,899
1	0,000	137,625	2162,100
1	0,000	137,625	2162,402
1	0,000	137,625	2162,604
1	0,000	137,676	2162,805
1	0,000	137,676	2163,007
1	0,000	137,676	2163,309
1	0,000	137,676	2163,510
1	0,000	137,676	2163,712
1	0,000	137,725	2164,014
1	0,000	137,725	2164,215
1	0,000	137,725	2164,517
1	0,000	137,725	2164,719
1	0,000	137,725	2165,021
1	0,000	137,775	2165,222
1	0,000	137,775	2165,524
1	0,000	137,775	2165,726
1	0,000	137,775	2166,028
1	0,000	137,775	2166,229
1	0,000	137,826	2166,531
1	0,000	137,826	2166,733
1	0,000	137,826	2167,035
1	0,000	137,826	2167,236
1	0,000	137,826	2167,538
1	0,000	137,876	2167,841
1	0,000	137,876	2168,042
1	0,000	137,876	2168,243
1	0,000	137,876	2168,445
1	0,000	137,876	2168,747
1	0,000	137,925	2168,948
1	0,000	137,925	2169,250
1	0,000	137,925	2169,452
1	0,000	137,925	2169,754
1	0,000	137,925	2169,955
1	0,000	137,975	2170,157
1	0,000	137,975	2170,358
1	0,000	137,975	2170,761
1	0,000	137,975	2170,963
1	0,000	137,975	2171,164
1	0,000	138,026	2171,466
1	0,000	138,026	2171,667
1	0,000	138,026	2171,970
1	0,000	138,026	2172,272
1	0,000	138,026	2172,372
1	0,000	138,076	2172,775
1	0,000	138,076	2172,977
1	0,000	138,076	2173,279
1	0,000	138,076	2173,380
1	0,000	138,076	2173,782
1	0,000	138,126	2173,984
1	0,000	138,126	2174,185
1	0,000	138,126	2174,487
1	0,000	138,126	2174,689
1	0,000	138,126	2174,890
1	0,000	138,176	2175,192
1	0,000	138,176	2175,394
1	0,000	138,176	2175,696
1	0,000	138,176	2175,998
1	0,000	138,176	2175,897
1	0,000	138,226	2176,501
1	0,000	138,226	2176,703
1	0,000	138,226	2177,005
1	0,000	138,226	2177,206
1	0,000	138,226	2177,408
1	0,000	138,276	2177,811
1	0,000	138,276	2177,911
1	0,000	138,276	2178,214
1	0,000	138,276	2178,415
1	0,000	138,276	2178,717
1	0,000	138,325	2179,019
1	0,000	138,325	2179,422
1	0,000	138,325	2179,623
1	0,000	138,325	2179,825
1	0,000	138,325	2180,026
1	0,000	138,376	2180,228
1	0,000	138,376	2180,530
1	0,000	138,376	2180,731
1	0,000	138,376	2181,033
1	0,000	138,376	2181,235
1	0,000	138,426	2181,436
1	0,000	138,426	2181,738
1	0,000	138,426	2182,040
1	0,000	138,426	2182,343
1	0,000	138,426	2182,544
1	0,000	138,476	2182,846
1	0,000	138,476	2183,047
1	0,000	138,476	2183,148
1	0,000	138,476	2183,551
1	0,000	138,476	2183,752
1	0,000	138,525	2184,155
1	0,000	138,525	2184,256
1	0,000	138,525	2184,558
1	0,000	138,525	2184,860
1	0,000	138,525	2185,062
1	0,000	138,575	2185,364
1	0,000	138,575	2185,565
1	0,000	138,575	2185,767
1	0,000	138,575	2186,069
1	0,000	138,575	2186,371
1	0,000	138,626	2186,673
1	0,000	138,626	2186,673
1	0,000	138,626	2187,177
1	0,000	138,626	2187,378
1	0,000	138,626	2187,680
1	0,000	138,676	2187,781
1	0,000	138,676	2188,083
1	0,000	138,676	2188,385
1	0,000	138,676	2188,586
1	0,000	138,676	2188,889
1	0,000	138,726	2189,090
1	0,000	138,726	2189,392
1	0,000	138,726	2189,694
1	0,000	138,726	2189,896
1	0,000	138,726	2190,198
1	0,000	138,776	2190,399
1	0,000	138,776	2190,701
1	0,000	138,776	2190,903
1	0,000	138,776	2191,104
1	0,000	138,776	2191,406
1	0,000	138,826	2191,608
1	0,000	138,826	2192,010
1	0,000	138,826	2192,212
1	0,000	138,826	2192,514
1	0,000	138,826	2192,715
1	0,000	138,876	2192,917
1	0,000	138,876	2193,219
1	0,000	138,876	2193,521
1	0,000	138,876	2193,723
1	0,000	138,876	2194,025
1	0,000	138,927	2194,226
1	0,000	138,927	2194,528
1	0,000	138,927	2194,830
1	0,000	138,927	2195,132
1	0,000	138,927	2195,334
1	0,000	138,977	2195,535
1	0,000	138,977	2195,737
1	0,000	138,977	2196,039
1	0,000	138,977	2196,240
1	0,000	138,977	2196,542
1	0,000	139,027	2196,744
1	0,000	139,027	2196,945
1	0,000	139,027	2197,247
1	0,000	139,027	2197,549
1	0,000	139,027	2197,751
1	0,000	139,078	2198,053
1	0,000	139,078	2198,254
1	0,000	139,078	2198,456
1	0,000	139,078	2198,758
1	0,000	139,078	2199,060
1	0,000	139,127	2199,261
1	0,000	139,127	2199,463
1	0,000	139,127	2199,664
1	0,000	139,127	2199,966
1	0,000	139,127	2200,269
1	0,000	139,177	2200,470
1	0,000	139,177	2200,772
1	0,000	139,177	2201,074
1	0,000	139,177	2201,376
1	0,000	139,177	2201,678
1	0,000	139,227	2201,880
1	0,000	139,227	2202,081
1	0,000	139,227	2202,383
1	0,000	139,227	2202,585
1	0,000	139,227	2202,887
1	0,000	139,277	2203,189
1	0,000	139,277	2203,391
1	0,000	139,277	2203,491
1	0,000	139,277	2203,894
1	0,000	139,277	2204,196
1	0,000	139,327	2204,398
1	0,000	139,327	2204,700
1	0,000	139,327	2204,901
1	0,000	139,327	2205,103
1	0,000	139,327	2205,405
1	0,000	139,377	2205,606
1	0,000	139,377	2205,908
1	0,000	139,377	2206,210
1	0,000	139,377	2206,512
1	0,000	139,377	2206,714
1	0,000	139,377	2207,016
1	0,000	139,427	2207,217
1	0,000	139,427	2207,520
1	0,000	139,427	2207,721
1	0,000	139,427	2208,023
1	0,000	139,478	2207,922
1	0,000	139,478	2208,527
1	0,000	139,478	2208,829
1	0,000	139,478	2209,030
1	0,000	139,478	2209,332
1	0,000	139,478	2209,534
1	0,000	139,528	2209,735
1	0,000	139,528	2209,937
1	0,000	139,528	2210,339
1	0,000	139,528	2210,541
1	0,000	139,528	2210,742
1	0,000	139,578	2211,044
1	0,000	139,578	2211,346
1	0,000	139,578	2211,649
1	0,000	139,578	2211,951
1	0,000	139,578	2212,152
1	0,000	139,629	2212,454
1	0,000	139,629	2212,656
1	0,000	139,629	2212,958
1	0,000	139,629	2213,159
1	0,000	139,629	2213,361
1	0,000	139,678	2213,663
1	0,000	139,678	2213,864
1	0,000	139,678	2214,267
1	0,000	139,678	2214,569
1	0,000	139,678	2214,771
1	0,000	139,728	2214,972
1	0,000	139,728	2215,173
1	0,000	139,728	2215,475
1	0,000	139,728	2215,677
1	0,000	139,728	2215,979
1	0,000	139,778	2216,180
1	0,000	139,778	2216,483
1	0,000	139,778	2216,684
1	0,000	139,778	2216,986
1	0,000	139,778	2217,288
1	0,000	139,828	2217,389
1	0,000	139,828	2217,892
1	0,000	139,828	2217,993
1	0,000	139,828	2218,295
1	0,000	139,878	2218,497
1	0,000	139,878	2218,799
1	0,000	139,878	2219,000
1	0,000	139,878	2219,202
1	0,000	139,878	2219,504
1	0,000	139,878	2219,705
1	0,000	139,922	2219,806
1	0,000	139,922	2220,209
1	0,000	139,922	2220,309
1	0,000	139,922	2220,511
1	0,000	139,922	2220,612
1	0,000	139,957	2220,813
1	0,000	139,957	2220,813
1	0,000	139,957	2221,014
1	0,000	139,957	2221,115
1	0,000	139,957	2221,216
1	0,000	139,981	2221,317
1	0,000	139,981	2221,317
1	0,000	139,981	2221,518
1	0,000	139,981	2221,518
1	0,000	139,981	2221,619
1	0,000	139,995	2221,619
1	0,000	139,995	2221,619
1	0,000	139,995	2221,719
1	0,000	139,995	2221,719
1	0,000	139,995	2221,719
1	0,000	140,000	2221,719
1	0,000	140,000	2221,719
1	0,000	140,000	2221,719
1	0,000	140,000	2221,719
1	0,000	140,000	2221,719
