Col.n° Rot(deg) Lin(mm) CHR(um)
1	0,000	50,084	1898,648
1	0,000	50,084	1895,828
1	0,000	50,130	1900,763
1	0,000	50,179	1894,821
1	0,000	50,179	1896,030
1	0,000	50,229	1894,720
1	0,000	50,279	1895,325
1	0,000	50,279	1899,756
1	0,000	50,329	1895,627
1	0,000	50,379	1896,936
1	0,000	50,379	1897,238
1	0,000	50,430	1893,109
1	0,000	50,479	1894,318
1	0,000	50,479	1895,929
1	0,000	50,529	1896,030
1	0,000	50,580	1893,613
1	0,000	50,580	1893,713
1	0,000	50,629	1892,303
1	0,000	50,680	1891,196
1	0,000	50,680	1893,411
1	0,000	50,730	1892,203
1	0,000	50,780	1894,720
1	0,000	50,780	1894,318
1	0,000	50,830	1895,325
1	0,000	50,881	1899,957
1	0,000	50,881	1893,814
1	0,000	50,931	1894,318
1	0,000	50,980	1897,238
1	0,000	50,980	1896,231
1	0,000	51,030	1897,037
1	0,000	51,080	1897,641
1	0,000	51,080	1894,519
1	0,000	51,130	1897,540
1	0,000	51,180	1898,145
1	0,000	51,180	1896,130
1	0,000	51,230	1894,620
1	0,000	51,281	1899,554
1	0,000	51,281	1898,648
1	0,000	51,331	1895,929
1	0,000	51,381	1893,008
1	0,000	51,381	1896,130
1	0,000	51,431	1899,152
1	0,000	51,481	1896,432
1	0,000	51,481	1895,929
1	0,000	51,531	1895,425
1	0,000	51,581	1899,655
1	0,000	51,581	1900,763
1	0,000	51,631	1901,569
1	0,000	51,682	1900,763
1	0,000	51,682	1896,835
1	0,000	51,731	1895,224
1	0,000	51,782	1896,130
1	0,000	51,782	1894,318
1	0,000	51,832	1897,440
1	0,000	51,881	1898,849
1	0,000	51,881	1897,742
1	0,000	51,932	1899,252
1	0,000	51,983	1895,023
1	0,000	51,983	1895,828
1	0,000	52,033	1900,864
1	0,000	52,083	1896,030
1	0,000	52,083	1897,037
1	0,000	52,133	1901,669
1	0,000	52,183	1897,339
1	0,000	52,183	1897,742
1	0,000	52,233	1896,936
1	0,000	52,284	1898,145
1	0,000	52,284	1899,554
1	0,000	52,334	1897,540
1	0,000	52,384	1896,030
1	0,000	52,384	1896,231
1	0,000	52,434	1895,627
1	0,000	52,484	1895,929
1	0,000	52,484	1894,620
1	0,000	52,534	1895,023
1	0,000	52,584	1894,116
1	0,000	52,584	1893,311
1	0,000	52,634	1892,908
1	0,000	52,684	1892,303
1	0,000	52,684	1890,994
1	0,000	52,734	1891,296
1	0,000	52,785	1891,901
1	0,000	52,785	1889,987
1	0,000	52,834	1887,469
1	0,000	52,884	1887,469
1	0,000	52,884	1887,067
1	0,000	52,934	1887,872
1	0,000	52,934	1885,455
1	0,000	52,985	1883,139
1	0,000	53,035	1881,830
1	0,000	53,085	1880,219
1	0,000	53,085	1879,614
1	0,000	53,135	1876,996
1	0,000	53,185	1876,694
1	0,000	53,185	1874,277
1	0,000	53,235	1871,558
1	0,000	53,285	1870,047
1	0,000	53,285	1869,342
1	0,000	53,335	1866,824
1	0,000	53,385	1864,105
1	0,000	53,385	1862,393
1	0,000	53,435	1860,580
1	0,000	53,485	1857,761
1	0,000	53,485	1855,847
1	0,000	53,536	1853,329
1	0,000	53,586	1850,510
1	0,000	53,586	1848,294
1	0,000	53,636	1846,582
1	0,000	53,686	1844,064
1	0,000	53,686	1841,647
1	0,000	53,736	1838,727
1	0,000	53,786	1836,108
1	0,000	53,786	1834,195
1	0,000	53,836	1831,375
1	0,000	53,887	1828,857
1	0,000	53,887	1839,835
1	0,000	53,937	1934,802
1	0,000	53,986	1940,039
1	0,000	53,986	1940,240
1	0,000	54,037	1940,240
1	0,000	54,087	1940,240
1	0,000	54,087	1940,240
1	0,000	54,137	1940,240
1	0,000	54,187	1940,240
1	0,000	54,187	1940,240
1	0,000	54,238	1940,240
1	0,000	54,287	1940,240
1	0,000	54,287	1940,341
1	0,000	54,337	1940,240
1	0,000	54,387	1940,240
1	0,000	54,387	1940,341
1	0,000	54,438	1940,240
1	0,000	54,487	1940,341
1	0,000	54,487	1940,341
1	0,000	54,537	1940,442
1	0,000	54,537	1940,442
1	0,000	54,588	1940,543
1	0,000	54,638	1940,744
1	0,000	54,638	1940,744
1	0,000	54,688	1940,643
1	0,000	54,738	1941,650
1	0,000	54,738	1940,744
1	0,000	54,788	1940,643
1	0,000	54,838	1940,543
1	0,000	54,838	1940,543
1	0,000	54,888	1940,543
1	0,000	54,938	1940,442
1	0,000	54,938	1940,442
1	0,000	54,988	1940,442
1	0,000	55,038	1940,543
1	0,000	55,038	1940,442
1	0,000	55,089	1940,442
1	0,000	55,139	1940,442
1	0,000	55,139	1940,442
1	0,000	55,189	1940,442
1	0,000	55,239	1940,442
1	0,000	55,239	1940,341
1	0,000	55,290	1940,442
1	0,000	55,340	1940,442
1	0,000	55,340	1940,341
1	0,000	55,390	1940,442
1	0,000	55,440	1940,442
1	0,000	55,440	1940,442
1	0,000	55,491	1940,341
1	0,000	55,541	1940,341
1	0,000	55,541	1940,341
1	0,000	55,591	1940,341
1	0,000	55,641	1940,341
1	0,000	55,641	1940,341
1	0,000	55,691	1940,240
1	0,000	55,741	1940,341
1	0,000	55,741	1940,341
1	0,000	55,791	1940,341
1	0,000	55,841	1940,341
1	0,000	55,841	1940,341
1	0,000	55,891	1940,341
1	0,000	55,942	1940,341
1	0,000	55,942	1940,341
1	0,000	55,992	1940,240
1	0,000	56,042	1940,341
1	0,000	56,042	1940,341
1	0,000	56,093	1940,341
1	0,000	56,143	1940,240
1	0,000	56,143	1940,240
1	0,000	56,193	1940,240
1	0,000	56,243	1940,240
1	0,000	56,243	1940,140
1	0,000	56,294	1940,240
1	0,000	56,344	1940,039
1	0,000	56,344	1940,039
1	0,000	56,394	1940,039
1	0,000	56,445	1940,039
1	0,000	56,445	1939,938
1	0,000	56,495	1940,039
1	0,000	56,545	1940,039
1	0,000	56,545	1939,938
1	0,000	56,595	1939,938
1	0,000	56,645	1940,039
1	0,000	56,645	1939,938
1	0,000	56,695	1939,838
1	0,000	56,745	1940,039
1	0,000	56,745	1939,838
1	0,000	56,795	1939,938
1	0,000	56,845	1940,140
1	0,000	56,845	1939,938
1	0,000	56,896	1939,938
1	0,000	56,946	1939,838
1	0,000	56,946	1939,838
1	0,000	56,995	1939,838
1	0,000	57,046	1939,838
1	0,000	57,046	1939,737
1	0,000	57,096	1939,737
1	0,000	57,146	1939,737
1	0,000	57,146	1939,737
1	0,000	57,196	1939,737
1	0,000	57,246	1939,737
1	0,000	57,246	1939,636
1	0,000	57,296	1939,636
1	0,000	57,346	1939,636
1	0,000	57,346	1939,636
1	0,000	57,396	1939,536
1	0,000	57,446	1939,536
1	0,000	57,446	1939,536
1	0,000	57,496	1939,536
1	0,000	57,546	1939,536
1	0,000	57,546	1939,435
1	0,000	57,596	1939,536
1	0,000	57,646	1939,435
1	0,000	57,646	1939,435
1	0,000	57,697	1939,334
1	0,000	57,747	1939,233
1	0,000	57,747	1939,233
1	0,000	57,797	1939,233
1	0,000	57,847	1939,233
1	0,000	57,847	1939,233
1	0,000	57,897	1939,133
1	0,000	57,948	1939,133
1	0,000	57,948	1939,133
1	0,000	57,997	1939,133
1	0,000	58,048	1939,032
1	0,000	58,048	1939,032
1	0,000	58,098	1938,931
1	0,000	58,148	1938,931
1	0,000	58,148	1938,931
1	0,000	58,198	1938,931
1	0,000	58,248	1938,931
1	0,000	58,248	1938,931
1	0,000	58,298	1938,831
1	0,000	58,348	1938,831
1	0,000	58,348	1938,730
1	0,000	58,398	1938,730
1	0,000	58,448	1938,730
1	0,000	58,448	1938,629
1	0,000	58,498	1938,629
1	0,000	58,549	1938,629
1	0,000	58,549	1938,629
1	0,000	58,599	1938,528
1	0,000	58,649	1938,528
1	0,000	58,649	1938,831
1	0,000	58,699	1938,730
1	0,000	58,750	1938,629
1	0,000	58,750	1938,327
1	0,000	58,800	1938,327
1	0,000	58,850	1938,428
1	0,000	58,850	1938,428
1	0,000	58,900	1938,327
1	0,000	58,950	1938,226
1	0,000	58,950	1938,327
1	0,000	59,000	1938,226
1	0,000	59,050	1938,226
1	0,000	59,050	1938,226
1	0,000	59,099	1938,126
1	0,000	59,150	1938,126
1	0,000	59,150	1938,126
1	0,000	59,201	1938,226
1	0,000	59,251	1938,226
1	0,000	59,251	1938,226
1	0,000	59,301	1938,025
1	0,000	59,351	1937,823
1	0,000	59,351	1937,823
1	0,000	59,401	1937,823
1	0,000	59,401	1937,723
1	0,000	59,452	1937,723
1	0,000	59,502	1937,723
1	0,000	59,552	1937,723
1	0,000	59,552	1937,622
1	0,000	59,603	1937,521
1	0,000	59,603	1937,521
1	0,000	59,653	1937,521
1	0,000	59,703	1937,521
1	0,000	59,703	1937,421
1	0,000	59,753	1937,421
1	0,000	59,804	1937,219
1	0,000	59,804	1937,320
1	0,000	59,853	1937,320
1	0,000	59,903	1937,219
1	0,000	59,903	1937,219
1	0,000	59,953	1937,521
1	0,000	60,004	1937,219
1	0,000	60,004	1937,119
1	0,000	60,053	1937,119
1	0,000	60,104	1937,219
1	0,000	60,104	1936,917
1	0,000	60,154	1937,018
1	0,000	60,205	1936,816
1	0,000	60,205	1936,816
1	0,000	60,255	1936,816
1	0,000	60,305	1936,816
1	0,000	60,305	1936,615
1	0,000	60,355	1936,716
1	0,000	60,405	1936,615
1	0,000	60,405	1936,514
1	0,000	60,455	1936,514
1	0,000	60,505	1936,514
1	0,000	60,505	1936,716
1	0,000	60,555	1936,716
1	0,000	60,605	1936,414
1	0,000	60,605	1936,313
1	0,000	60,655	1936,414
1	0,000	60,705	1936,212
1	0,000	60,705	1936,212
1	0,000	60,755	1936,111
1	0,000	60,805	1936,111
1	0,000	60,805	1936,111
1	0,000	60,856	1936,011
1	0,000	60,906	1935,809
1	0,000	60,906	1935,910
1	0,000	60,956	1935,809
1	0,000	61,006	1935,809
1	0,000	61,006	1935,809
1	0,000	61,056	1935,709
1	0,000	61,106	1935,709
1	0,000	61,106	1935,709
1	0,000	61,156	1935,608
1	0,000	61,207	1935,507
1	0,000	61,207	1935,406
1	0,000	61,257	1935,406
1	0,000	61,307	1935,406
1	0,000	61,307	1935,306
1	0,000	61,357	1935,306
1	0,000	61,407	1935,205
1	0,000	61,407	1935,205
1	0,000	61,457	1935,104
1	0,000	61,507	1935,104
1	0,000	61,507	1935,004
1	0,000	61,557	1934,903
1	0,000	61,607	1934,903
1	0,000	61,607	1934,903
1	0,000	61,657	1934,802
1	0,000	61,707	1934,601
1	0,000	61,707	1934,702
1	0,000	61,757	1934,601
1	0,000	61,807	1934,601
1	0,000	61,807	1934,500
1	0,000	61,857	1934,399
1	0,000	61,907	1934,399
1	0,000	61,907	1934,399
1	0,000	61,957	1934,299
1	0,000	62,007	1934,299
1	0,000	62,007	1934,198
1	0,000	62,056	1934,097
1	0,000	62,107	1934,097
1	0,000	62,107	1934,097
1	0,000	62,157	1933,997
1	0,000	62,208	1933,896
1	0,000	62,208	1933,896
1	0,000	62,257	1933,795
1	0,000	62,307	1933,795
1	0,000	62,307	1933,795
1	0,000	62,357	1933,694
1	0,000	62,407	1933,594
1	0,000	62,407	1933,594
1	0,000	62,457	1933,493
1	0,000	62,507	1933,392
1	0,000	62,507	1933,392
1	0,000	62,557	1933,292
1	0,000	62,607	1933,292
1	0,000	62,607	1933,191
1	0,000	62,657	1933,292
1	0,000	62,707	1933,090
1	0,000	62,707	1932,990
1	0,000	62,757	1932,990
1	0,000	62,807	1932,990
1	0,000	62,807	1932,889
1	0,000	62,857	1932,889
1	0,000	62,907	1932,788
1	0,000	62,907	1932,687
1	0,000	62,957	1932,587
1	0,000	63,007	1932,486
1	0,000	63,007	1932,385
1	0,000	63,057	1932,385
1	0,000	63,107	1932,285
1	0,000	63,107	1932,285
1	0,000	63,157	1932,285
1	0,000	63,207	1931,982
1	0,000	63,207	1931,982
1	0,000	63,257	1931,882
1	0,000	63,307	1931,781
1	0,000	63,307	1931,580
1	0,000	63,357	1931,580
1	0,000	63,408	1931,479
1	0,000	63,408	1931,378
1	0,000	63,457	1931,378
1	0,000	63,508	1931,277
1	0,000	63,508	1931,177
1	0,000	63,558	1931,076
1	0,000	63,607	1930,975
1	0,000	63,607	1930,975
1	0,000	63,657	1930,875
1	0,000	63,707	1930,875
1	0,000	63,707	1930,774
1	0,000	63,758	1930,673
1	0,000	63,808	1930,573
1	0,000	63,808	1930,472
1	0,000	63,858	1930,472
1	0,000	63,908	1930,472
1	0,000	63,908	1930,371
1	0,000	63,958	1930,270
1	0,000	64,007	1930,270
1	0,000	64,007	1930,170
1	0,000	64,058	1930,170
1	0,000	64,108	1929,968
1	0,000	64,108	1929,968
1	0,000	64,158	1929,968
1	0,000	64,208	1929,968
1	0,000	64,208	1929,868
1	0,000	64,258	1929,767
1	0,000	64,308	1929,767
1	0,000	64,308	1929,666
1	0,000	64,357	1929,565
1	0,000	64,408	1929,565
1	0,000	64,408	1929,465
1	0,000	64,458	1929,465
1	0,000	64,508	1929,364
1	0,000	64,508	1929,263
1	0,000	64,558	1929,263
1	0,000	64,608	1929,163
1	0,000	64,608	1929,163
1	0,000	64,659	1929,062
1	0,000	64,709	1929,062
1	0,000	64,709	1928,961
1	0,000	64,759	1928,860
1	0,000	64,809	1928,760
1	0,000	64,809	1928,760
1	0,000	64,859	1928,760
1	0,000	64,908	1928,659
1	0,000	64,908	1928,659
1	0,000	64,959	1928,659
1	0,000	65,009	1928,558
1	0,000	65,009	1928,558
1	0,000	65,059	1928,458
1	0,000	65,109	1928,357
1	0,000	65,109	1928,256
1	0,000	65,159	1928,256
1	0,000	65,209	1928,156
1	0,000	65,209	1928,156
1	0,000	65,259	1928,156
1	0,000	65,309	1928,055
1	0,000	65,309	2019,397
1	0,000	65,309	1928,055
1	0,000	65,359	1927,753
1	0,000	65,409	1927,853
1	0,000	65,409	1927,652
1	0,000	65,459	1927,753
1	0,000	65,509	1927,451
1	0,000	65,509	1927,451
1	0,000	65,559	1927,350
1	0,000	65,609	1927,350
1	0,000	65,609	1927,249
1	0,000	65,659	1927,148
1	0,000	65,709	1927,148
1	0,000	65,709	1927,048
1	0,000	65,759	1927,048
1	0,000	65,809	1926,846
1	0,000	65,809	1926,846
1	0,000	65,859	1926,645
1	0,000	65,909	1926,645
1	0,000	65,909	1926,645
1	0,000	65,959	1926,544
1	0,000	66,009	1926,544
1	0,000	66,009	1926,544
1	0,000	66,059	1926,443
1	0,000	66,109	1926,242
1	0,000	66,109	1926,343
1	0,000	66,159	1926,141
1	0,000	66,209	1926,141
1	0,000	66,209	1926,041
1	0,000	66,259	1925,940
1	0,000	66,309	1925,940
1	0,000	66,309	1925,839
1	0,000	66,359	1925,739
1	0,000	66,409	1925,739
1	0,000	66,409	1925,638
1	0,000	66,459	1925,537
1	0,000	66,509	1925,537
1	0,000	66,509	1925,436
1	0,000	66,559	1925,336
1	0,000	66,609	1925,336
1	0,000	66,609	1925,235
1	0,000	66,659	1925,235
1	0,000	66,659	1925,134
1	0,000	66,709	1924,933
1	0,000	66,759	1925,034
1	0,000	66,809	1924,933
1	0,000	66,809	1924,832
1	0,000	66,859	1924,731
1	0,000	66,909	1924,631
1	0,000	66,909	1924,530
1	0,000	66,959	1924,530
1	0,000	67,009	1924,530
1	0,000	67,009	1924,429
1	0,000	67,059	1924,329
1	0,000	67,110	1924,329
1	0,000	67,110	1924,329
1	0,000	67,160	1924,127
1	0,000	67,210	1924,127
1	0,000	67,210	1924,127
1	0,000	67,260	1923,926
1	0,000	67,310	1923,825
1	0,000	67,310	1923,825
1	0,000	67,360	1923,724
1	0,000	67,410	1923,624
1	0,000	67,410	1923,724
1	0,000	67,460	1923,523
1	0,000	67,510	1923,422
1	0,000	67,510	1923,322
1	0,000	67,560	1923,322
1	0,000	67,610	1923,221
1	0,000	67,610	1923,120
1	0,000	67,660	1923,120
1	0,000	67,710	1923,019
1	0,000	67,710	1922,919
1	0,000	67,759	1922,818
1	0,000	67,809	1922,818
1	0,000	67,809	1922,717
1	0,000	67,860	1922,516
1	0,000	67,910	1922,516
1	0,000	67,910	1922,415
1	0,000	67,961	1922,314
1	0,000	68,011	1922,415
1	0,000	68,011	1922,214
1	0,000	68,060	1922,113
1	0,000	68,111	1922,012
1	0,000	68,111	1921,912
1	0,000	68,161	1921,912
1	0,000	68,211	1921,811
1	0,000	68,211	1921,710
1	0,000	68,261	1921,811
1	0,000	68,311	1921,811
1	0,000	68,311	1921,609
1	0,000	68,361	1921,509
1	0,000	68,411	1921,408
1	0,000	68,411	1921,509
1	0,000	68,461	1921,307
1	0,000	68,511	1921,307
1	0,000	68,511	2019,397
1	0,000	68,511	1921,106
1	0,000	68,561	1921,005
1	0,000	68,612	1921,307
1	0,000	68,612	1921,207
1	0,000	68,662	1920,905
1	0,000	68,711	1920,703
1	0,000	68,711	1920,703
1	0,000	68,762	1920,602
1	0,000	68,812	1920,502
1	0,000	68,812	1920,602
1	0,000	68,862	1920,300
1	0,000	68,912	1920,200
1	0,000	68,912	1920,300
1	0,000	68,962	1919,998
1	0,000	69,012	1919,998
1	0,000	69,012	1919,797
1	0,000	69,061	1919,797
1	0,000	69,112	1919,797
1	0,000	69,112	1920,300
1	0,000	69,162	1919,696
1	0,000	69,212	1919,897
1	0,000	69,212	1919,495
1	0,000	69,263	1919,495
1	0,000	69,312	1919,293
1	0,000	69,312	1919,394
1	0,000	69,362	1919,495
1	0,000	69,412	1919,193
1	0,000	69,412	1919,394
1	0,000	69,462	1919,293
1	0,000	69,513	1919,293
1	0,000	69,513	1919,293
1	0,000	69,563	1919,092
1	0,000	69,612	1918,790
1	0,000	69,612	1918,689
1	0,000	69,663	1918,689
1	0,000	69,712	1918,588
1	0,000	69,712	1918,488
1	0,000	69,763	1918,387
1	0,000	69,813	1918,286
1	0,000	69,813	1918,286
1	0,000	69,863	1918,185
1	0,000	69,913	1918,185
1	0,000	69,913	1917,984
1	0,000	69,963	1917,984
1	0,000	70,013	1917,883
1	0,000	70,013	1918,790
1	0,000	70,062	1917,682
1	0,000	70,113	1917,682
1	0,000	70,113	1917,682
1	0,000	70,163	1917,480
1	0,000	70,213	1917,480
1	0,000	70,213	1917,380
1	0,000	70,263	1917,380
1	0,000	70,313	1917,380
1	0,000	70,313	1917,279
1	0,000	70,363	1917,078
1	0,000	70,413	1917,078
1	0,000	70,413	1917,178
1	0,000	70,463	1916,977
1	0,000	70,512	1916,675
1	0,000	70,512	1916,776
1	0,000	70,563	1916,776
1	0,000	70,613	1916,776
1	0,000	70,613	1916,574
1	0,000	70,663	1916,574
1	0,000	70,713	1916,574
1	0,000	70,713	1916,574
1	0,000	70,763	1916,373
1	0,000	70,813	1916,373
1	0,000	70,813	1916,373
1	0,000	70,863	1916,373
1	0,000	70,913	1916,171
1	0,000	70,913	1916,171
1	0,000	70,963	1916,071
1	0,000	71,013	1916,071
1	0,000	71,013	1915,970
1	0,000	71,063	1915,768
1	0,000	71,063	1915,768
1	0,000	71,113	1915,768
1	0,000	71,163	1915,768
1	0,000	71,213	1915,567
1	0,000	71,213	1915,466
1	0,000	71,263	1915,466
1	0,000	71,263	1915,366
1	0,000	71,313	1915,366
1	0,000	71,364	1915,265
1	0,000	71,364	1915,265
1	0,000	71,413	1915,265
1	0,000	71,464	1914,963
1	0,000	71,464	1915,063
1	0,000	71,513	1915,164
1	0,000	71,564	1914,862
1	0,000	71,564	1914,862
1	0,000	71,614	1914,661
1	0,000	71,663	1914,761
1	0,000	71,663	1914,661
1	0,000	71,714	1914,560
1	0,000	71,764	1914,459
1	0,000	71,764	1914,359
1	0,000	71,814	1914,459
1	0,000	71,863	1914,258
1	0,000	71,863	1914,459
1	0,000	71,914	1914,258
1	0,000	71,964	1914,056
1	0,000	71,964	1913,956
1	0,000	72,014	1913,855
1	0,000	72,064	1913,855
1	0,000	72,064	1913,654
1	0,000	72,114	1913,452
1	0,000	72,164	1913,351
1	0,000	72,164	1913,553
1	0,000	72,214	1913,553
1	0,000	72,264	1913,351
1	0,000	72,264	1913,251
1	0,000	72,314	1913,049
1	0,000	72,364	1913,251
1	0,000	72,364	1913,351
1	0,000	72,414	1913,251
1	0,000	72,464	1913,150
1	0,000	72,464	1913,251
1	0,000	72,514	1912,949
1	0,000	72,564	1912,848
1	0,000	72,564	1912,848
1	0,000	72,614	1912,848
1	0,000	72,664	1912,747
1	0,000	72,664	1912,646
1	0,000	72,714	1912,546
1	0,000	72,764	1912,546
1	0,000	72,764	1912,344
1	0,000	72,814	1912,344
1	0,000	72,864	1912,244
1	0,000	72,864	1912,143
1	0,000	72,914	1912,042
1	0,000	72,964	1912,042
1	0,000	72,964	1912,042
1	0,000	73,014	1911,841
1	0,000	73,064	1911,841
1	0,000	73,064	1911,841
1	0,000	73,114	1911,740
1	0,000	73,164	1911,639
1	0,000	73,164	1911,740
1	0,000	73,214	1911,539
1	0,000	73,264	1911,438
1	0,000	73,314	1911,438
1	0,000	73,314	1911,337
1	0,000	73,364	1911,237
1	0,000	73,364	1911,337
1	0,000	73,414	1911,136
1	0,000	73,464	1911,136
1	0,000	73,464	1911,035
1	0,000	73,514	1910,934
1	0,000	73,565	1910,934
1	0,000	73,565	1910,834
1	0,000	73,614	1910,532
1	0,000	73,664	1910,632
1	0,000	73,664	1910,632
1	0,000	73,714	1910,532
1	0,000	73,764	1910,632
1	0,000	73,764	1910,431
1	0,000	73,814	1910,330
1	0,000	73,864	1910,229
1	0,000	73,864	1910,229
1	0,000	73,914	1910,229
1	0,000	73,965	1910,129
1	0,000	73,965	1910,129
1	0,000	74,015	1910,028
1	0,000	74,066	1910,028
1	0,000	74,066	1910,028
1	0,000	74,115	1909,827
1	0,000	74,165	1909,726
1	0,000	74,165	1910,028
1	0,000	74,216	1909,726
1	0,000	74,266	1909,625
1	0,000	74,266	1909,525
1	0,000	74,315	1909,525
1	0,000	74,366	1909,323
1	0,000	74,366	1909,323
1	0,000	74,415	1909,222
1	0,000	74,465	1909,222
1	0,000	74,465	1909,122
1	0,000	74,515	1909,323
1	0,000	74,565	1909,424
1	0,000	74,565	1909,122
1	0,000	74,616	1909,021
1	0,000	74,666	1908,920
1	0,000	74,666	1908,820
1	0,000	74,716	1908,719
1	0,000	74,766	1908,719
1	0,000	74,766	1908,920
1	0,000	74,816	1908,618
1	0,000	74,866	1908,517
1	0,000	74,866	1908,517
1	0,000	74,916	1908,417
1	0,000	74,966	1908,417
1	0,000	74,966	1908,316
1	0,000	75,016	1908,215
1	0,000	75,066	1908,215
1	0,000	75,066	1908,115
1	0,000	75,116	1908,014
1	0,000	75,166	1908,014
1	0,000	75,166	1907,913
1	0,000	75,216	1907,913
1	0,000	75,266	1907,812
1	0,000	75,266	1907,812
1	0,000	75,316	1907,712
1	0,000	75,366	1907,712
1	0,000	75,366	1907,611
1	0,000	75,417	1907,510
1	0,000	75,466	1907,510
1	0,000	75,466	1907,309
1	0,000	75,516	1907,410
1	0,000	75,566	1907,410
1	0,000	75,566	1907,410
1	0,000	75,616	1907,208
1	0,000	75,667	1907,108
1	0,000	75,667	1907,108
1	0,000	75,716	1907,007
1	0,000	75,766	1907,108
1	0,000	75,766	1906,805
1	0,000	75,816	1907,108
1	0,000	75,866	1906,906
1	0,000	75,866	1906,705
1	0,000	75,916	1906,604
1	0,000	75,966	1906,604
1	0,000	75,966	1906,705
1	0,000	76,016	1906,503
1	0,000	76,066	1906,403
1	0,000	76,066	1906,302
1	0,000	76,116	1906,503
1	0,000	76,167	1906,201
1	0,000	76,167	1906,000
1	0,000	76,216	1906,100
1	0,000	76,266	1906,705
1	0,000	76,266	1906,100
1	0,000	76,316	1905,899
1	0,000	76,366	1905,798
1	0,000	76,366	1905,798
1	0,000	76,416	1905,899
1	0,000	76,467	1905,698
1	0,000	76,467	1905,597
1	0,000	76,516	1905,496
1	0,000	76,566	1905,597
1	0,000	76,566	1905,496
1	0,000	76,616	1905,396
1	0,000	76,666	1905,396
1	0,000	76,666	1905,396
1	0,000	76,716	1905,396
1	0,000	76,766	1905,194
1	0,000	76,766	1905,194
1	0,000	76,816	1905,093
1	0,000	76,866	1905,093
1	0,000	76,866	1904,993
1	0,000	76,916	1904,993
1	0,000	76,967	1904,892
1	0,000	76,967	1904,892
1	0,000	77,016	1904,791
1	0,000	77,066	1904,791
1	0,000	77,066	1904,791
1	0,000	77,117	1904,590
1	0,000	77,167	1904,590
1	0,000	77,167	1904,489
1	0,000	77,217	1904,590
1	0,000	77,267	1904,388
1	0,000	77,267	1904,691
1	0,000	77,317	1904,388
1	0,000	77,368	1904,388
1	0,000	77,368	1904,288
1	0,000	77,417	1904,086
1	0,000	77,467	1904,086
1	0,000	77,467	1904,086
1	0,000	77,517	1904,086
1	0,000	77,567	1904,288
1	0,000	77,567	1904,288
1	0,000	77,617	1903,986
1	0,000	77,667	1903,885
1	0,000	77,667	1903,784
1	0,000	77,717	1903,683
1	0,000	77,767	1903,784
1	0,000	77,767	1903,683
1	0,000	77,817	1903,683
1	0,000	77,867	1903,583
1	0,000	77,867	1903,482
1	0,000	77,917	1903,381
1	0,000	77,967	1903,381
1	0,000	77,967	1903,281
1	0,000	78,018	1903,079
1	0,000	78,068	1903,180
1	0,000	78,068	1903,180
1	0,000	78,118	1903,180
1	0,000	78,168	1903,079
1	0,000	78,168	1902,878
1	0,000	78,218	1902,777
1	0,000	78,268	1902,878
1	0,000	78,268	1902,878
1	0,000	78,318	1902,878
1	0,000	78,368	1902,878
1	0,000	78,368	1902,878
1	0,000	78,418	1902,777
1	0,000	78,468	1902,777
1	0,000	78,468	1902,676
1	0,000	78,518	1902,676
1	0,000	78,568	1902,676
1	0,000	78,568	1902,676
1	0,000	78,618	1902,576
1	0,000	78,668	1902,475
1	0,000	78,668	1902,374
1	0,000	78,718	1902,374
1	0,000	78,769	1902,274
1	0,000	78,769	1902,374
1	0,000	78,819	1902,274
1	0,000	78,869	1902,072
1	0,000	78,869	1902,173
1	0,000	78,919	1902,173
1	0,000	78,969	1902,173
1	0,000	78,969	1902,173
1	0,000	79,019	1901,971
1	0,000	79,069	1901,871
1	0,000	79,069	1901,871
1	0,000	79,119	1901,770
1	0,000	79,168	1901,669
1	0,000	79,168	1901,569
1	0,000	79,219	1901,669
1	0,000	79,268	1901,669
1	0,000	79,268	1901,367
1	0,000	79,319	1901,569
1	0,000	79,369	1901,468
1	0,000	79,369	1901,367
1	0,000	79,419	1901,468
1	0,000	79,469	1901,367
1	0,000	79,469	1901,266
1	0,000	79,519	1901,266
1	0,000	79,569	1901,166
1	0,000	79,569	1901,166
1	0,000	79,619	1901,266
1	0,000	79,669	1901,166
1	0,000	79,669	1900,964
1	0,000	79,719	1900,964
1	0,000	79,770	1901,065
1	0,000	79,770	1901,065
1	0,000	79,820	1900,964
1	0,000	79,870	1900,964
1	0,000	79,870	1900,864
1	0,000	79,920	1900,864
1	0,000	79,970	1900,763
1	0,000	79,970	1900,662
1	0,000	80,020	1900,763
1	0,000	80,070	1900,763
1	0,000	80,070	1900,763
1	0,000	80,120	1900,662
1	0,000	80,170	1900,763
1	0,000	80,170	1900,562
1	0,000	80,220	1900,562
1	0,000	80,270	1900,461
1	0,000	80,270	1900,964
1	0,000	80,320	1900,461
1	0,000	80,370	1900,360
1	0,000	80,370	1900,360
1	0,000	80,420	1900,159
1	0,000	80,470	1900,058
1	0,000	80,470	1900,159
1	0,000	80,520	1900,159
1	0,000	80,570	1900,159
1	0,000	80,570	1900,259
1	0,000	80,620	1900,360
1	0,000	80,670	1899,957
1	0,000	80,670	1899,957
1	0,000	80,720	1899,957
1	0,000	80,770	1899,857
1	0,000	80,770	1899,957
1	0,000	80,820	1899,957
1	0,000	80,870	1899,857
1	0,000	80,870	1899,857
1	0,000	80,921	1899,957
1	0,000	80,970	1899,857
1	0,000	80,970	1899,857
1	0,000	81,020	1899,957
1	0,000	81,070	1899,756
1	0,000	81,070	1899,655
1	0,000	81,120	1899,655
1	0,000	81,170	1899,756
1	0,000	81,170	1899,655
1	0,000	81,220	1899,554
1	0,000	81,270	1899,655
1	0,000	81,270	1899,655
1	0,000	81,320	1899,353
1	0,000	81,371	1899,554
1	0,000	81,371	1899,554
1	0,000	81,421	1899,454
1	0,000	81,471	1899,454
1	0,000	81,471	1899,454
1	0,000	81,521	1899,454
1	0,000	81,571	1899,252
1	0,000	81,571	1899,454
1	0,000	81,621	1899,353
1	0,000	81,671	1899,152
1	0,000	81,671	1899,252
1	0,000	81,721	1899,252
1	0,000	81,771	1899,051
1	0,000	81,771	1899,152
1	0,000	81,821	1899,252
1	0,000	81,872	1899,051
1	0,000	81,872	1898,950
1	0,000	81,921	1899,051
1	0,000	81,971	1899,152
1	0,000	81,971	1898,950
1	0,000	82,021	1898,849
1	0,000	82,072	1898,950
1	0,000	82,072	1898,950
1	0,000	82,121	1898,849
1	0,000	82,171	1898,849
1	0,000	82,171	1898,950
1	0,000	82,221	1898,849
1	0,000	82,271	1898,849
1	0,000	82,271	1898,950
1	0,000	82,321	1898,547
1	0,000	82,371	1898,749
1	0,000	82,371	1898,849
1	0,000	82,421	1898,749
1	0,000	82,471	1898,849
1	0,000	82,471	1898,950
1	0,000	82,521	1898,749
1	0,000	82,571	1898,749
1	0,000	82,571	1898,749
1	0,000	82,621	1898,950
1	0,000	82,671	1898,849
1	0,000	82,671	1898,648
1	0,000	82,721	1898,648
1	0,000	82,771	1898,648
1	0,000	82,771	1898,749
1	0,000	82,821	1898,648
1	0,000	82,871	1898,749
1	0,000	82,871	1898,547
1	0,000	82,921	1898,648
1	0,000	82,971	1898,648
1	0,000	82,971	1898,749
1	0,000	83,021	1898,648
1	0,000	83,071	1898,648
1	0,000	83,071	1898,547
1	0,000	83,121	1898,547
1	0,000	83,171	1898,346
1	0,000	83,171	1898,547
1	0,000	83,221	1898,447
1	0,000	83,271	1898,547
1	0,000	83,271	1898,447
1	0,000	83,321	1898,447
1	0,000	83,371	1898,447
1	0,000	83,371	1898,447
1	0,000	83,421	1898,547
1	0,000	83,471	1898,447
1	0,000	83,471	1898,447
1	0,000	83,521	1898,547
1	0,000	83,571	1898,547
1	0,000	83,571	1898,447
1	0,000	83,621	1898,346
1	0,000	83,671	1898,245
1	0,000	83,671	1898,447
1	0,000	83,721	1898,749
1	0,000	83,771	1898,447
1	0,000	83,771	1898,447
1	0,000	83,821	1898,447
1	0,000	83,871	1898,547
1	0,000	83,871	1898,447
1	0,000	83,921	1898,346
1	0,000	83,971	1898,346
1	0,000	83,971	1898,346
1	0,000	84,021	1898,447
1	0,000	84,071	1898,447
1	0,000	84,071	1898,447
1	0,000	84,121	1898,346
1	0,000	84,171	1898,346
1	0,000	84,171	1898,346
1	0,000	84,221	1898,447
1	0,000	84,271	1898,648
1	0,000	84,271	1898,447
1	0,000	84,321	1898,447
1	0,000	84,371	1898,447
1	0,000	84,371	1898,346
1	0,000	84,421	1898,447
1	0,000	84,471	1898,547
1	0,000	84,471	1898,547
1	0,000	84,521	1898,346
1	0,000	84,571	1898,547
1	0,000	84,571	1898,447
1	0,000	84,622	1898,447
1	0,000	84,671	1898,447
1	0,000	84,671	1898,547
1	0,000	84,721	1898,447
1	0,000	84,771	1898,547
1	0,000	84,771	1898,447
1	0,000	84,822	1898,547
1	0,000	84,871	1898,447
1	0,000	84,871	1898,547
1	0,000	84,921	1898,447
1	0,000	84,971	1898,447
1	0,000	84,971	1898,648
1	0,000	85,021	1898,547
1	0,000	85,071	1898,648
1	0,000	85,071	1898,648
1	0,000	85,121	1898,547
1	0,000	85,171	1898,648
1	0,000	85,171	1898,547
1	0,000	85,222	1898,648
1	0,000	85,272	1898,547
1	0,000	85,272	1898,547
1	0,000	85,322	1898,547
1	0,000	85,372	1898,648
1	0,000	85,372	1898,648
1	0,000	85,422	1898,648
1	0,000	85,472	1898,749
1	0,000	85,472	1898,749
1	0,000	85,522	1898,547
1	0,000	85,571	1898,749
1	0,000	85,571	1898,648
1	0,000	85,622	1898,749
1	0,000	85,672	1898,648
1	0,000	85,672	1898,648
1	0,000	85,722	1898,749
1	0,000	85,772	1898,648
1	0,000	85,772	1898,749
1	0,000	85,822	1898,849
1	0,000	85,872	1898,749
1	0,000	85,872	1898,749
1	0,000	85,922	1898,849
1	0,000	85,922	1898,849
1	0,000	85,972	1898,950
1	0,000	86,023	1898,849
1	0,000	86,023	1898,849
1	0,000	86,072	1899,051
1	0,000	86,123	1899,152
1	0,000	86,123	1898,950
1	0,000	86,173	1898,950
1	0,000	86,223	1899,051
1	0,000	86,273	1899,051
1	0,000	86,273	1898,950
1	0,000	86,323	1899,051
1	0,000	86,323	1898,950
1	0,000	86,373	1899,051
1	0,000	86,423	1899,051
1	0,000	86,473	1898,950
1	0,000	86,473	1899,152
1	0,000	86,523	1899,152
1	0,000	86,523	1899,152
1	0,000	86,572	1899,152
1	0,000	86,623	1899,051
1	0,000	86,673	1899,051
1	0,000	86,673	1898,950
1	0,000	86,723	1899,152
1	0,000	86,723	1899,051
1	0,000	86,773	1899,252
1	0,000	86,823	1899,152
1	0,000	86,874	1899,252
1	0,000	86,874	1899,152
1	0,000	86,924	1899,353
1	0,000	86,924	1899,353
1	0,000	86,974	1899,454
1	0,000	87,024	1899,454
1	0,000	87,024	1899,454
1	0,000	87,074	1899,554
1	0,000	87,124	1899,655
1	0,000	87,124	1899,554
1	0,000	87,174	1899,655
1	0,000	87,224	1899,554
1	0,000	87,224	1899,454
1	0,000	87,274	1899,756
1	0,000	87,324	1899,655
1	0,000	87,324	1899,857
1	0,000	87,374	1899,857
1	0,000	87,424	1899,454
1	0,000	87,424	1899,857
1	0,000	87,474	1899,655
1	0,000	87,524	1899,655
1	0,000	87,524	1899,857
1	0,000	87,574	1899,957
1	0,000	87,624	1900,058
1	0,000	87,624	1899,957
1	0,000	87,674	1900,058
1	0,000	87,724	1900,159
1	0,000	87,724	1900,058
1	0,000	87,774	1900,159
1	0,000	87,824	1900,159
1	0,000	87,824	1900,159
1	0,000	87,874	1900,259
1	0,000	87,924	1900,159
1	0,000	87,924	1900,259
1	0,000	87,975	1900,360
1	0,000	88,024	1900,461
1	0,000	88,024	1900,461
1	0,000	88,074	1900,461
1	0,000	88,124	1900,562
1	0,000	88,124	1900,562
1	0,000	88,174	1900,662
1	0,000	88,225	1900,864
1	0,000	88,225	1900,964
1	0,000	88,274	1900,964
1	0,000	88,325	1900,864
1	0,000	88,325	1900,864
1	0,000	88,375	1901,065
1	0,000	88,425	1901,065
1	0,000	88,425	1901,065
1	0,000	88,475	1901,065
1	0,000	88,525	1901,065
1	0,000	88,525	1901,166
1	0,000	88,575	1901,166
1	0,000	88,625	1901,468
1	0,000	88,625	1901,065
1	0,000	88,676	1901,367
1	0,000	88,726	1901,367
1	0,000	88,726	1901,770
1	0,000	88,776	1901,569
1	0,000	88,826	1901,468
1	0,000	88,826	1901,669
1	0,000	88,876	1901,569
1	0,000	88,926	1901,569
1	0,000	88,926	1901,569
1	0,000	88,976	1901,669
1	0,000	89,026	1901,669
1	0,000	89,026	1901,770
1	0,000	89,076	1901,770
1	0,000	89,126	1901,871
1	0,000	89,126	1901,871
1	0,000	89,176	1901,971
1	0,000	89,226	1902,072
1	0,000	89,226	1902,173
1	0,000	89,276	1902,173
1	0,000	89,327	1902,274
1	0,000	89,327	1902,374
1	0,000	89,377	1902,475
1	0,000	89,426	1902,374
1	0,000	89,426	1902,475
1	0,000	89,477	1902,777
1	0,000	89,526	1902,475
1	0,000	89,526	1902,576
1	0,000	89,576	1902,676
1	0,000	89,626	1902,576
1	0,000	89,626	1902,676
1	0,000	89,677	1902,878
1	0,000	89,727	1902,878
1	0,000	89,727	1902,777
1	0,000	89,776	1902,878
1	0,000	89,827	1902,979
1	0,000	89,827	1903,079
1	0,000	89,877	1903,180
1	0,000	89,926	1903,180
1	0,000	89,926	1903,281
1	0,000	89,977	1903,381
1	0,000	90,026	1903,583
1	0,000	90,026	1903,281
1	0,000	90,077	1903,180
1	0,000	90,127	1903,784
1	0,000	90,127	1903,784
1	0,000	90,177	1903,784
1	0,000	90,228	1903,683
1	0,000	90,228	1903,784
1	0,000	90,277	1903,784
1	0,000	90,328	1903,986
1	0,000	90,328	1903,784
1	0,000	90,377	1903,986
1	0,000	90,427	1904,590
1	0,000	90,427	1904,086
1	0,000	90,477	1904,288
1	0,000	90,527	1904,388
1	0,000	90,527	1904,489
1	0,000	90,577	1904,489
1	0,000	90,627	1904,590
1	0,000	90,627	1904,691
1	0,000	90,677	1904,691
1	0,000	90,727	1904,791
1	0,000	90,727	1904,892
1	0,000	90,777	1904,993
1	0,000	90,827	1904,993
1	0,000	90,827	1904,993
1	0,000	90,877	1905,093
1	0,000	90,927	1905,295
1	0,000	90,927	1905,194
1	0,000	90,977	1905,396
1	0,000	91,027	1905,496
1	0,000	91,027	1905,496
1	0,000	91,077	1905,597
1	0,000	91,127	1905,597
1	0,000	91,127	1905,698
1	0,000	91,177	1905,899
1	0,000	91,228	1905,798
1	0,000	91,228	1905,899
1	0,000	91,277	1906,100
1	0,000	91,327	1906,100
1	0,000	91,327	1906,100
1	0,000	91,377	1906,201
1	0,000	91,427	1906,302
1	0,000	91,427	1906,403
1	0,000	91,477	1906,503
1	0,000	91,527	1906,604
1	0,000	91,527	1906,604
1	0,000	91,577	1906,705
1	0,000	91,628	1906,805
1	0,000	91,628	1906,805
1	0,000	91,678	1906,906
1	0,000	91,727	1907,007
1	0,000	91,727	1907,007
1	0,000	91,778	1907,108
1	0,000	91,828	1907,208
1	0,000	91,828	1907,309
1	0,000	91,877	1907,309
1	0,000	91,927	1907,410
1	0,000	91,927	1907,410
1	0,000	91,978	1907,611
1	0,000	92,027	1907,712
1	0,000	92,027	1907,812
1	0,000	92,078	1907,812
1	0,000	92,128	1907,913
1	0,000	92,128	1907,913
1	0,000	92,178	1908,115
1	0,000	92,228	1908,115
1	0,000	92,228	1908,316
1	0,000	92,278	1908,316
1	0,000	92,327	1908,417
1	0,000	92,327	1908,417
1	0,000	92,378	1908,517
1	0,000	92,428	1908,719
1	0,000	92,428	1908,820
1	0,000	92,478	1908,920
1	0,000	92,528	1909,021
1	0,000	92,528	1909,122
1	0,000	92,578	1909,222
1	0,000	92,628	1909,323
1	0,000	92,628	1909,424
1	0,000	92,678	1909,726
1	0,000	92,729	1909,625
1	0,000	92,729	1909,726
1	0,000	92,778	1909,827
1	0,000	92,829	1909,927
1	0,000	92,829	1909,927
1	0,000	92,879	1910,129
1	0,000	92,928	1910,229
1	0,000	92,928	1910,330
1	0,000	92,979	1910,431
1	0,000	93,029	1910,532
1	0,000	93,029	1910,632
1	0,000	93,079	1910,733
1	0,000	93,129	1910,834
1	0,000	93,129	1911,035
1	0,000	93,179	1910,934
1	0,000	93,229	1911,237
1	0,000	93,229	1911,237
1	0,000	93,279	1911,337
1	0,000	93,329	1911,438
1	0,000	93,329	1911,539
1	0,000	93,380	1911,639
1	0,000	93,430	1911,740
1	0,000	93,430	1911,841
1	0,000	93,480	1911,942
1	0,000	93,530	1912,042
1	0,000	93,530	1912,042
1	0,000	93,580	1912,143
1	0,000	93,630	1912,244
1	0,000	93,630	1912,344
1	0,000	93,680	1912,445
1	0,000	93,729	1912,646
1	0,000	93,729	1912,646
1	0,000	93,780	1912,848
1	0,000	93,830	1912,949
1	0,000	93,830	1912,949
1	0,000	93,880	1913,251
1	0,000	93,930	1913,251
1	0,000	93,930	1913,351
1	0,000	93,980	1913,452
1	0,000	94,030	1913,654
1	0,000	94,030	1913,855
1	0,000	94,081	1913,956
1	0,000	94,130	1913,956
1	0,000	94,130	1914,157
1	0,000	94,180	1914,359
1	0,000	94,231	1914,258
1	0,000	94,231	1914,459
1	0,000	94,280	1914,661
1	0,000	94,331	1914,661
1	0,000	94,331	1914,761
1	0,000	94,381	1914,862
1	0,000	94,431	1915,063
1	0,000	94,431	1915,063
1	0,000	94,481	1915,164
1	0,000	94,531	1915,265
1	0,000	94,531	1915,466
1	0,000	94,582	1915,567
1	0,000	94,631	1915,668
1	0,000	94,631	1915,768
1	0,000	94,681	1915,869
1	0,000	94,731	1915,970
1	0,000	94,731	1916,171
1	0,000	94,781	1916,272
1	0,000	94,831	1916,373
1	0,000	94,831	1916,473
1	0,000	94,881	1916,675
1	0,000	94,931	1916,675
1	0,000	94,931	1916,876
1	0,000	94,981	1917,078
1	0,000	95,031	1917,178
1	0,000	95,031	1917,279
1	0,000	95,081	1917,380
1	0,000	95,131	1917,480
1	0,000	95,131	1917,682
1	0,000	95,181	1917,783
1	0,000	95,231	1917,783
1	0,000	95,231	1917,984
1	0,000	95,281	1918,185
1	0,000	95,331	1918,286
1	0,000	95,331	1918,387
1	0,000	95,381	1918,588
1	0,000	95,431	1918,689
1	0,000	95,431	1918,790
1	0,000	95,481	1918,890
1	0,000	95,531	1919,092
1	0,000	95,531	1919,394
1	0,000	95,581	1919,394
1	0,000	95,631	1919,595
1	0,000	95,631	1919,595
1	0,000	95,682	1919,696
1	0,000	95,732	1919,998
1	0,000	95,732	1920,099
1	0,000	95,782	1920,099
1	0,000	95,832	1920,200
1	0,000	95,832	1920,401
1	0,000	95,882	1920,502
1	0,000	95,932	1920,703
1	0,000	95,932	1920,905
1	0,000	95,982	1921,106
1	0,000	96,032	1921,408
1	0,000	96,032	1921,307
1	0,000	96,082	1921,408
1	0,000	96,132	1921,509
1	0,000	96,132	1921,710
1	0,000	96,181	1921,710
1	0,000	96,232	1921,811
1	0,000	96,232	1922,113
1	0,000	96,282	1922,214
1	0,000	96,332	1922,214
1	0,000	96,332	1922,415
1	0,000	96,382	1922,617
1	0,000	96,432	1922,717
1	0,000	96,432	1922,818
1	0,000	96,482	1923,120
1	0,000	96,532	1923,120
1	0,000	96,532	1923,322
1	0,000	96,582	1923,422
1	0,000	96,632	1923,624
1	0,000	96,632	1923,724
1	0,000	96,682	1923,926
1	0,000	96,732	1924,127
1	0,000	96,732	1924,228
1	0,000	96,782	1924,329
1	0,000	96,832	1924,530
1	0,000	96,832	1924,731
1	0,000	96,882	1924,832
1	0,000	96,932	1924,933
1	0,000	96,932	1925,235
1	0,000	96,982	1925,235
1	0,000	97,032	1925,436
1	0,000	97,032	1925,537
1	0,000	97,082	1925,739
1	0,000	97,132	1925,739
1	0,000	97,132	1926,041
1	0,000	97,182	1926,141
1	0,000	97,232	1926,242
1	0,000	97,232	1926,343
1	0,000	97,282	1926,544
1	0,000	97,282	1926,746
1	0,000	97,332	1926,846
1	0,000	97,382	1927,148
1	0,000	97,432	1927,249
1	0,000	97,432	1927,350
1	0,000	97,482	1927,451
1	0,000	97,532	1927,753
1	0,000	97,532	1927,853
1	0,000	97,582	1927,954
1	0,000	97,632	1928,055
1	0,000	97,632	1928,357
1	0,000	97,682	1928,458
1	0,000	97,682	1928,659
1	0,000	97,732	1928,760
1	0,000	97,783	1928,961
1	0,000	97,832	1929,263
1	0,000	97,832	1929,364
1	0,000	97,882	1929,565
1	0,000	97,932	1929,767
1	0,000	97,932	1929,767
1	0,000	97,983	1930,069
1	0,000	98,033	1930,170
1	0,000	98,033	1930,371
1	0,000	98,084	1930,371
1	0,000	98,133	1930,673
1	0,000	98,133	1930,875
1	0,000	98,183	1931,076
1	0,000	98,183	1931,177
1	0,000	98,234	1931,479
1	0,000	98,284	1931,580
1	0,000	98,284	1931,680
1	0,000	98,334	1931,882
1	0,000	98,384	1932,083
1	0,000	98,384	1932,184
1	0,000	98,434	1932,385
1	0,000	98,484	1932,587
1	0,000	98,484	1932,788
1	0,000	98,534	1932,990
1	0,000	98,584	1933,191
1	0,000	98,584	1933,292
1	0,000	98,634	1933,493
1	0,000	98,684	1933,594
1	0,000	98,684	1933,795
1	0,000	98,735	1933,997
1	0,000	98,785	1934,097
1	0,000	98,785	1934,299
1	0,000	98,835	1934,500
1	0,000	98,885	1934,601
1	0,000	98,885	1934,802
1	0,000	98,935	1934,903
1	0,000	98,985	1935,205
1	0,000	98,985	1935,306
1	0,000	99,035	1935,507
1	0,000	99,085	1935,608
1	0,000	99,085	1935,910
1	0,000	99,135	1936,111
1	0,000	99,185	1936,313
1	0,000	99,185	1936,514
1	0,000	99,235	1936,716
1	0,000	99,285	1936,816
1	0,000	99,285	1937,018
1	0,000	99,335	1937,219
1	0,000	99,385	1937,320
1	0,000	99,385	1937,521
1	0,000	99,435	1937,723
1	0,000	99,485	1937,924
1	0,000	99,485	1938,025
1	0,000	99,535	1938,226
1	0,000	99,585	1938,327
1	0,000	99,585	1938,528
1	0,000	99,635	1938,730
1	0,000	99,685	1938,931
1	0,000	99,685	1939,133
1	0,000	99,735	1939,435
1	0,000	99,786	1939,536
1	0,000	99,786	1939,636
1	0,000	99,836	1939,938
1	0,000	99,886	1940,039
1	0,000	99,886	1940,240
1	0,000	99,936	1940,442
1	0,000	99,986	1940,643
1	0,000	99,986	1940,845
1	0,000	100,036	1941,046
1	0,000	100,086	1941,147
1	0,000	100,086	1941,449
1	0,000	100,136	1941,650
1	0,000	100,186	1941,751
1	0,000	100,186	1942,053
1	0,000	100,236	1942,255
1	0,000	100,286	1942,456
1	0,000	100,286	1942,557
1	0,000	100,336	1942,758
1	0,000	100,386	1943,060
1	0,000	100,386	1943,161
1	0,000	100,436	1943,362
1	0,000	100,486	1943,564
1	0,000	100,486	1943,866
1	0,000	100,536	1944,067
1	0,000	100,586	1944,269
1	0,000	100,586	1944,470
1	0,000	100,636	1944,672
1	0,000	100,686	1944,873
1	0,000	100,686	1945,074
1	0,000	100,736	1945,276
1	0,000	100,786	1945,477
1	0,000	100,786	1945,679
1	0,000	100,837	1945,880
1	0,000	100,886	1946,082
1	0,000	100,886	1946,283
1	0,000	100,936	1946,484
1	0,000	100,986	1946,686
1	0,000	100,986	1946,887
1	0,000	101,036	1947,189
1	0,000	101,087	1947,290
1	0,000	101,087	1947,491
1	0,000	101,137	1947,693
1	0,000	101,187	1947,995
1	0,000	101,187	1948,297
1	0,000	101,237	1948,398
1	0,000	101,287	1948,599
1	0,000	101,287	1948,801
1	0,000	101,337	1949,103
1	0,000	101,388	1949,203
1	0,000	101,388	1949,506
1	0,000	101,438	1949,707
1	0,000	101,488	1949,808
1	0,000	101,488	1950,009
1	0,000	101,538	1950,211
1	0,000	101,588	1950,513
1	0,000	101,588	1950,714
1	0,000	101,638	1950,916
1	0,000	101,688	1951,218
1	0,000	101,688	1951,318
1	0,000	101,738	1951,620
1	0,000	101,788	1951,822
1	0,000	101,788	1952,023
1	0,000	101,838	1952,325
1	0,000	101,888	1952,426
1	0,000	101,888	1952,728
1	0,000	101,939	1953,030
1	0,000	101,989	1953,131
1	0,000	101,989	1953,433
1	0,000	102,039	1953,635
1	0,000	102,089	1953,836
1	0,000	102,089	1954,037
1	0,000	102,139	1954,239
1	0,000	102,189	1954,440
1	0,000	102,189	1954,642
1	0,000	102,239	1954,944
1	0,000	102,290	1955,246
1	0,000	102,290	1955,447
1	0,000	102,339	1955,649
1	0,000	102,389	1955,850
1	0,000	102,389	1956,152
1	0,000	102,440	1956,253
1	0,000	102,490	1956,454
1	0,000	102,490	1956,656
1	0,000	102,540	1956,958
1	0,000	102,590	1957,159
1	0,000	102,590	1957,361
1	0,000	102,640	1957,562
1	0,000	102,690	1957,864
1	0,000	102,690	1958,066
1	0,000	102,739	1958,267
1	0,000	102,790	1958,469
1	0,000	102,790	1958,670
1	0,000	102,839	1958,972
1	0,000	102,890	1959,174
1	0,000	102,890	1959,375
1	0,000	102,939	1959,677
1	0,000	102,990	1959,778
1	0,000	102,990	1959,979
1	0,000	103,039	1960,281
1	0,000	103,089	1960,483
1	0,000	103,089	1960,684
1	0,000	103,140	1960,886
1	0,000	103,190	1961,188
1	0,000	103,190	1961,389
1	0,000	103,240	1961,691
1	0,000	103,290	1961,993
1	0,000	103,290	1962,094
1	0,000	103,340	1962,396
1	0,000	103,390	1962,698
1	0,000	103,390	1962,900
1	0,000	103,440	1963,101
1	0,000	103,490	1963,303
1	0,000	103,490	1963,605
1	0,000	103,541	1963,806
1	0,000	103,591	1964,108
1	0,000	103,591	1964,410
1	0,000	103,641	1964,511
1	0,000	103,691	1964,813
1	0,000	103,691	1965,015
1	0,000	103,741	1965,216
1	0,000	103,792	1965,518
1	0,000	103,792	1965,820
1	0,000	103,842	1966,022
1	0,000	103,892	1966,324
1	0,000	103,892	1966,425
1	0,000	103,942	1966,727
1	0,000	103,991	1966,928
1	0,000	103,991	1967,230
1	0,000	104,042	1967,532
1	0,000	104,092	1967,734
1	0,000	104,092	1967,935
1	0,000	104,142	1968,237
1	0,000	104,192	1968,539
1	0,000	104,192	1968,741
1	0,000	104,241	1969,043
1	0,000	104,292	1969,244
1	0,000	104,292	1969,547
1	0,000	104,342	1969,949
1	0,000	104,393	1970,151
1	0,000	104,393	1970,352
1	0,000	104,443	1970,554
1	0,000	104,493	1970,755
1	0,000	104,493	1971,057
1	0,000	104,543	1971,259
1	0,000	104,593	1971,460
1	0,000	104,593	1971,762
1	0,000	104,643	1971,964
1	0,000	104,692	1972,366
1	0,000	104,692	1972,668
1	0,000	104,743	1972,971
1	0,000	104,793	1973,273
1	0,000	104,793	1973,474
1	0,000	104,843	1973,776
1	0,000	104,893	1973,877
1	0,000	104,893	1974,179
1	0,000	104,943	1974,481
1	0,000	104,992	1974,783
1	0,000	104,992	1975,085
1	0,000	105,042	1975,287
1	0,000	105,092	1975,589
1	0,000	105,092	1975,790
1	0,000	105,142	1976,093
1	0,000	105,192	1976,495
1	0,000	105,192	1976,596
1	0,000	105,243	1976,898
1	0,000	105,293	1977,200
1	0,000	105,293	1977,502
1	0,000	105,342	1977,704
1	0,000	105,392	1977,905
1	0,000	105,392	1978,207
1	0,000	105,443	1978,510
1	0,000	105,493	1978,812
1	0,000	105,493	1979,114
1	0,000	105,542	1979,416
1	0,000	105,592	1979,617
1	0,000	105,592	1979,919
1	0,000	105,643	1980,222
1	0,000	105,693	1980,423
1	0,000	105,693	1980,725
1	0,000	105,743	1980,927
1	0,000	105,793	1981,229
1	0,000	105,793	1981,531
1	0,000	105,843	1982,236
1	0,000	105,893	1982,236
1	0,000	105,893	1982,336
1	0,000	105,943	1982,639
1	0,000	105,993	1982,941
1	0,000	105,993	1983,243
1	0,000	106,042	1983,545
1	0,000	106,093	1983,746
1	0,000	106,093	1983,847
1	0,000	106,142	1984,149
1	0,000	106,193	1984,653
1	0,000	106,193	1984,955
1	0,000	106,242	1985,156
1	0,000	106,293	1985,458
1	0,000	106,293	1985,760
1	0,000	106,343	1986,063
1	0,000	106,393	1986,365
1	0,000	106,393	1986,667
1	0,000	106,443	1986,969
1	0,000	106,493	1987,271
1	0,000	106,493	1987,573
1	0,000	106,543	1987,775
1	0,000	106,593	1988,177
1	0,000	106,593	1988,480
1	0,000	106,643	1988,681
1	0,000	106,693	1988,983
1	0,000	106,693	1989,285
1	0,000	106,743	1989,587
1	0,000	106,793	1989,990
1	0,000	106,793	1990,292
1	0,000	106,843	1990,494
1	0,000	106,894	1990,796
1	0,000	106,894	1991,098
1	0,000	106,943	1991,501
1	0,000	106,994	1991,803
1	0,000	106,994	1992,004
1	0,000	107,044	1992,407
1	0,000	107,094	1992,709
1	0,000	107,094	1993,011
1	0,000	107,144	1993,112
1	0,000	107,194	1994,321
1	0,000	107,194	1994,019
1	0,000	107,245	1994,724
1	0,000	107,294	1994,824
1	0,000	107,294	1994,925
1	0,000	107,344	1995,328
1	0,000	107,394	1995,529
1	0,000	107,394	1995,731
1	0,000	107,444	1996,033
1	0,000	107,494	1996,234
1	0,000	107,494	1996,637
1	0,000	107,544	1996,838
1	0,000	107,594	1997,141
1	0,000	107,594	1997,443
1	0,000	107,644	1997,745
1	0,000	107,694	1998,148
1	0,000	107,694	1998,349
1	0,000	107,744	1998,752
1	0,000	107,795	1998,953
1	0,000	107,795	1999,255
1	0,000	107,845	1999,557
1	0,000	107,895	2000,061
1	0,000	107,895	2000,262
1	0,000	107,945	2000,565
1	0,000	107,994	2000,867
1	0,000	107,994	2001,270
1	0,000	108,045	2001,572
1	0,000	108,094	2001,974
1	0,000	108,094	2002,277
1	0,000	108,144	2002,579
1	0,000	108,195	2002,881
1	0,000	108,195	2003,183
1	0,000	108,245	2003,485
1	0,000	108,295	2003,888
1	0,000	108,295	2004,190
1	0,000	108,346	2004,492
1	0,000	108,346	2004,794
1	0,000	108,396	2005,096
1	0,000	108,446	2005,499
1	0,000	108,446	2005,801
1	0,000	108,495	2006,204
1	0,000	108,546	2006,506
1	0,000	108,546	2006,909
1	0,000	108,595	2007,111
1	0,000	108,646	2007,413
1	0,000	108,646	2007,816
1	0,000	108,696	2008,017
1	0,000	108,745	2008,319
1	0,000	108,795	2008,621
1	0,000	108,795	2008,923
1	0,000	108,845	2009,326
1	0,000	108,845	2009,628
1	0,000	108,896	2010,233
1	0,000	108,945	2010,535
1	0,000	108,945	2010,635
1	0,000	108,996	2010,937
1	0,000	109,046	2011,240
1	0,000	109,046	2011,542
1	0,000	109,096	2011,844
1	0,000	109,146	2012,247
1	0,000	109,146	2012,650
1	0,000	109,196	2012,952
1	0,000	109,246	2013,254
1	0,000	109,246	2013,657
1	0,000	109,296	2014,059
1	0,000	109,346	2014,462
1	0,000	109,346	2014,664
1	0,000	109,396	2015,067
1	0,000	109,446	2015,369
1	0,000	109,446	2015,671
1	0,000	109,496	2015,973
1	0,000	109,545	2016,376
1	0,000	109,545	2016,678
1	0,000	109,596	2016,980
1	0,000	109,646	2017,383
1	0,000	109,646	2017,685
1	0,000	109,696	2018,088
1	0,000	109,746	2018,390
1	0,000	109,746	2018,692
1	0,000	109,796	2019,095
1	0,000	109,846	2019,397
1	0,000	109,846	2019,800
1	0,000	109,896	2020,102
1	0,000	109,946	2020,404
1	0,000	109,946	2020,706
1	0,000	109,996	2021,109
1	0,000	110,046	2021,512
1	0,000	110,046	2021,713
1	0,000	110,096	2022,116
1	0,000	110,146	2022,519
1	0,000	110,146	2022,821
1	0,000	110,196	2023,224
1	0,000	110,248	2023,526
1	0,000	110,248	2023,828
1	0,000	110,298	2024,231
1	0,000	110,348	2024,634
1	0,000	110,348	2024,936
1	0,000	110,398	2025,339
1	0,000	110,448	2025,641
1	0,000	110,448	2025,943
1	0,000	110,497	2026,346
1	0,000	110,548	2026,749
1	0,000	110,548	2027,051
1	0,000	110,598	2027,454
1	0,000	110,648	2027,756
1	0,000	110,648	2028,159
1	0,000	110,698	2028,461
1	0,000	110,748	2028,763
1	0,000	110,748	2029,065
1	0,000	110,798	2029,468
1	0,000	110,848	2029,669
1	0,000	110,848	2029,971
1	0,000	110,898	2030,374
1	0,000	110,948	2030,676
1	0,000	110,948	2031,079
1	0,000	110,998	2031,281
1	0,000	111,048	2031,683
1	0,000	111,048	2032,086
1	0,000	111,098	2032,388
1	0,000	111,148	2032,791
1	0,000	111,148	2033,093
1	0,000	111,198	2033,395
1	0,000	111,248	2033,798
1	0,000	111,248	2034,100
1	0,000	111,298	2034,402
1	0,000	111,348	2034,805
1	0,000	111,348	2035,208
1	0,000	111,398	2035,510
1	0,000	111,448	2035,913
1	0,000	111,448	2036,215
1	0,000	111,498	2036,618
1	0,000	111,549	2036,920
1	0,000	111,549	2037,323
1	0,000	111,599	2037,726
1	0,000	111,649	2038,129
1	0,000	111,649	2038,531
1	0,000	111,699	2038,934
1	0,000	111,750	2039,337
1	0,000	111,750	2039,740
1	0,000	111,800	2040,042
1	0,000	111,850	2040,344
1	0,000	111,850	2040,848
1	0,000	111,900	2041,150
1	0,000	111,950	2041,553
1	0,000	111,950	2041,855
1	0,000	112,000	2042,258
1	0,000	112,051	2042,459
1	0,000	112,051	2042,761
1	0,000	112,101	2043,063
1	0,000	112,151	2043,466
1	0,000	112,151	2043,768
1	0,000	112,201	2044,171
1	0,000	112,251	2044,473
1	0,000	112,251	2044,876
1	0,000	112,300	2045,178
1	0,000	112,351	2045,581
1	0,000	112,351	2045,984
1	0,000	112,401	2046,387
1	0,000	112,450	2046,689
1	0,000	112,450	2047,192
1	0,000	112,501	2047,495
1	0,000	112,551	2047,797
1	0,000	112,551	2048,300
1	0,000	112,601	2048,602
1	0,000	112,650	2049,005
1	0,000	112,650	2049,408
1	0,000	112,701	2049,811
1	0,000	112,751	2050,214
1	0,000	112,751	2050,516
1	0,000	112,801	2050,919
1	0,000	112,850	2051,321
1	0,000	112,850	2051,825
1	0,000	112,900	2052,328
1	0,000	112,951	2052,731
1	0,000	112,951	2053,033
1	0,000	113,000	2053,537
1	0,000	113,051	2053,839
1	0,000	113,051	2054,041
1	0,000	113,100	2054,443
1	0,000	113,151	2054,745
1	0,000	113,151	2055,148
1	0,000	113,201	2055,450
1	0,000	113,251	2055,753
1	0,000	113,251	2056,155
1	0,000	113,302	2056,558
1	0,000	113,352	2056,961
1	0,000	113,352	2057,263
1	0,000	113,402	2057,666
1	0,000	113,452	2058,069
1	0,000	113,452	2058,371
1	0,000	113,502	2058,774
1	0,000	113,552	2059,277
1	0,000	113,552	2059,579
1	0,000	113,602	2060,083
1	0,000	113,652	2060,385
1	0,000	113,652	2060,788
1	0,000	113,702	2061,191
1	0,000	113,752	2061,594
1	0,000	113,752	2061,896
1	0,000	113,803	2062,299
1	0,000	113,853	2062,601
1	0,000	113,853	2063,104
1	0,000	113,902	2063,507
1	0,000	113,953	2063,910
1	0,000	113,953	2064,313
1	0,000	114,002	2064,716
1	0,000	114,053	2065,118
1	0,000	114,053	2065,521
1	0,000	114,103	2065,924
1	0,000	114,153	2066,327
1	0,000	114,153	2066,629
1	0,000	114,203	2067,133
1	0,000	114,253	2067,535
1	0,000	114,253	2067,737
1	0,000	114,304	2068,240
1	0,000	114,354	2068,542
1	0,000	114,354	2068,945
1	0,000	114,404	2069,449
1	0,000	114,453	2069,852
1	0,000	114,453	2070,255
1	0,000	114,503	2070,657
1	0,000	114,503	2070,959
1	0,000	114,554	2071,463
1	0,000	114,604	2071,866
1	0,000	114,654	2072,369
1	0,000	114,654	2072,772
1	0,000	114,704	2073,175
1	0,000	114,754	2073,679
1	0,000	114,754	2074,081
1	0,000	114,804	2074,585
1	0,000	114,855	2074,988
1	0,000	114,855	2075,491
1	0,000	114,905	2075,894
1	0,000	114,955	2076,297
1	0,000	114,955	2076,599
1	0,000	115,005	2077,103
1	0,000	115,055	2077,505
1	0,000	115,055	2077,908
1	0,000	115,105	2078,311
1	0,000	115,155	2078,714
1	0,000	115,155	2079,016
1	0,000	115,205	2079,520
1	0,000	115,255	2080,023
1	0,000	115,255	2080,325
1	0,000	115,305	2080,728
1	0,000	115,355	2081,030
1	0,000	115,355	2081,534
1	0,000	115,405	2081,836
1	0,000	115,405	2082,339
1	0,000	115,455	2082,642
1	0,000	115,505	2083,145
1	0,000	115,555	2083,649
1	0,000	115,555	2084,052
1	0,000	115,605	2084,555
1	0,000	115,655	2084,958
1	0,000	115,655	2085,361
1	0,000	115,705	2085,764
1	0,000	115,755	2086,166
1	0,000	115,755	2086,569
1	0,000	115,805	2087,073
1	0,000	115,855	2087,476
1	0,000	115,855	2087,979
1	0,000	115,905	2088,281
1	0,000	115,955	2088,684
1	0,000	115,955	2089,188
1	0,000	116,005	2089,490
1	0,000	116,055	2089,993
1	0,000	116,055	2090,396
1	0,000	116,105	2090,698
1	0,000	116,155	2091,101
1	0,000	116,155	2091,504
1	0,000	116,205	2091,907
1	0,000	116,255	2092,410
1	0,000	116,255	2092,813
1	0,000	116,305	2093,115
1	0,000	116,355	2093,619
1	0,000	116,355	2094,022
1	0,000	116,405	2094,525
1	0,000	116,455	2094,928
1	0,000	116,455	2095,331
1	0,000	116,505	2095,734
1	0,000	116,556	2096,237
1	0,000	116,556	2096,741
1	0,000	116,605	2097,144
1	0,000	116,656	2097,546
1	0,000	116,656	2097,949
1	0,000	116,705	2098,352
1	0,000	116,756	2098,956
1	0,000	116,756	2099,258
1	0,000	116,806	2099,661
1	0,000	116,856	2100,165
1	0,000	116,856	2100,568
1	0,000	116,906	2100,970
1	0,000	116,956	2101,474
1	0,000	116,956	2101,877
1	0,000	117,006	2102,280
1	0,000	117,056	2102,783
1	0,000	117,056	2103,186
1	0,000	117,106	2103,690
1	0,000	117,157	2104,193
1	0,000	117,157	2104,596
1	0,000	117,207	2104,999
1	0,000	117,257	2105,402
1	0,000	117,257	2105,905
1	0,000	117,306	2106,107
1	0,000	117,357	2106,610
1	0,000	117,357	2107,114
1	0,000	117,407	2107,516
1	0,000	117,457	2108,020
1	0,000	117,457	2108,423
1	0,000	117,507	2108,826
1	0,000	117,557	2109,329
1	0,000	117,557	2109,732
1	0,000	117,607	2110,437
1	0,000	117,657	2110,638
1	0,000	117,657	2111,041
1	0,000	117,707	2111,545
1	0,000	117,757	2111,948
1	0,000	117,757	2112,451
1	0,000	117,807	2112,753
1	0,000	117,857	2113,257
1	0,000	117,857	2113,760
1	0,000	117,907	2114,264
1	0,000	117,957	2114,667
1	0,000	117,957	2115,070
1	0,000	118,007	2115,573
1	0,000	118,057	2115,976
1	0,000	118,057	2116,479
1	0,000	118,108	2116,983
1	0,000	118,108	2117,386
1	0,000	118,158	2117,789
1	0,000	118,208	2118,292
1	0,000	118,258	2118,695
1	0,000	118,258	2119,098
1	0,000	118,308	2119,601
1	0,000	118,308	2120,004
1	0,000	118,358	2120,508
1	0,000	118,408	2120,911
1	0,000	118,458	2121,313
1	0,000	118,458	2121,817
1	0,000	118,508	2122,321
1	0,000	118,508	2122,824
1	0,000	118,558	2123,227
1	0,000	118,608	2123,630
1	0,000	118,608	2124,033
1	0,000	118,658	2124,536
1	0,000	118,708	2125,040
1	0,000	118,708	2125,443
1	0,000	118,758	2125,946
1	0,000	118,808	2126,349
1	0,000	118,808	2126,852
1	0,000	118,859	2127,255
1	0,000	118,908	2127,759
1	0,000	118,908	2128,162
1	0,000	118,959	2128,766
1	0,000	119,008	2129,269
1	0,000	119,008	2129,572
1	0,000	119,059	2130,176
1	0,000	119,108	2130,579
1	0,000	119,108	2130,981
1	0,000	119,159	2131,586
1	0,000	119,208	2131,989
1	0,000	119,208	2132,492
1	0,000	119,259	2132,895
1	0,000	119,309	2133,398
1	0,000	119,309	2133,801
1	0,000	119,358	2134,305
1	0,000	119,409	2134,708
1	0,000	119,409	2135,312
1	0,000	119,458	2135,815
1	0,000	119,509	2136,218
1	0,000	119,509	2136,722
1	0,000	119,559	2137,125
1	0,000	119,609	2137,628
1	0,000	119,609	2138,031
1	0,000	119,659	2138,535
1	0,000	119,709	2138,937
1	0,000	119,709	2139,441
1	0,000	119,759	2139,844
1	0,000	119,809	2140,347
1	0,000	119,809	2140,750
1	0,000	119,859	2141,153
1	0,000	119,906	2141,656
1	0,000	119,906	2141,959
1	0,000	119,944	2142,059
1	0,000	119,973	2142,160
1	0,000	119,973	2142,462
1	0,000	119,991	2142,462
1	0,000	119,999	2142,462
1	0,000	119,999	2142,462
